95-Am-241(n,&gamma;) ENDF/B-VII.1
1.0E-5,39456.2
1.31241E-5,34440.5
1.70876E-5,30182.0
2.2426E-5,26345.0
2.91987E-5,23087.0
3.83206E-5,20151.1
4.98935E-5,17658.5
6.54808E-5,15412.2
8.52562E-5,13505.2
1.11891E-4,11786.2
1.45682E-4,10326.4
1.91195E-4,9010.96
2.48937E-4,7893.51
3.26707E-4,6885.8
4.25373E-4,6029.96
5.58264E-4,5257.98
7.26861E-4,4602.23
9.53941E-4,4010.23
0.00124203,3506.58
0.00163006,3051.9
0.00212234,2664.88
0.00278538,2314.93
0.00362657,2016.98
0.00475955,1750.55
0.00649986,1480.99
0.00885724,1250.84
0.012142,1050.12
0.0158747,899.793
0.0207477,769.669
0.0234661,715.91
0.0253,684.874
0.033204,583.981
0.0432317,501.782
0.0567377,430.095
0.0738726,375.573
0.0969512,336.6
0.115845,323.304
0.126104,321.956
0.150761,334.8
0.17287,370.198
0.190144,421.559
0.203351,482.873
0.215043,562.304
0.22623,672.86
0.236578,823.118
0.245388,1009.34
0.253079,1241.07
0.259931,1530.29
0.266224,1896.2
0.272517,2394.45
0.279229,3106.84
0.29436,5134.65
0.298835,5571.63
0.304004,5777.22
0.309575,5576.28
0.315616,4945.58
0.329712,3005.93
0.336005,2322.34
0.341738,1847.46
0.347612,1483.35
0.354324,1180.88
0.361176,960.209
0.369007,781.45
0.376978,653.209
0.386767,544.25
0.397954,462.33
0.409141,410.305
0.420888,378.015
0.433194,362.801
0.439347,361.408
0.453633,373.807
0.467918,410.809
0.478802,460.901
0.489685,538.623
0.499208,640.737
0.507371,767.172
0.515262,941.797
0.521928,1149.54
0.528322,1424.27
0.534852,1809.97
0.54179,2366.62
0.550633,3292.24
0.561952,4512.59
0.568917,4930.7
0.572095,4970.94
0.577189,4822.5
0.583719,4307.94
0.600262,2481.65
0.606955,1894.03
0.613077,1484.26
0.619471,1166.54
0.626001,929.923
0.632531,756.538
0.64015,609.13
0.648176,496.889
0.657972,398.967
0.669127,320.897
0.679603,268.374
0.692119,222.667
0.707355,183.236
0.723681,153.618
0.743271,128.855
0.766126,109.267
0.793335,94.0824
0.824353,83.5052
0.855371,77.6671
0.898905,75.2173
0.938767,77.9802
0.978629,85.9189
1.0144,99.1688
1.04198,115.281
1.06955,139.488
1.09311,170.412
1.11322,208.916
1.13074,257.206
1.14482,311.769
1.15832,384.849
1.16982,471.922
1.17987,577.241
1.18892,707.579
1.19797,889.548
1.20558,1102.93
1.21262,1371.83
1.22009,1761.99
1.22698,2246.34
1.23474,2956.79
1.24675,4348.64
1.25813,5648.42
1.26491,6158.55
1.27162,6328.23
1.27824,6130.96
1.28651,5449.51
1.30785,2965.54
1.31575,2237.47
1.32265,1748.85
1.32954,1379.85
1.33687,1090.44
1.34491,860.949
1.35253,702.914
1.36158,565.501
1.3722,450.291
1.38327,364.653
1.39591,294.216
1.40998,237.987
1.42607,192.1
1.44245,158.41
1.46255,128.591
1.48439,105.596
1.50852,87.5329
1.53572,73.2079
1.56828,61.561
1.60084,53.9801
1.6334,49.2994
1.66741,47.0541
1.67875,46.9115
1.71379,48.6802
1.74008,52.9059
1.76224,59.5179
1.78234,69.4985
1.79909,82.7439
1.81326,99.9865
1.82408,119.404
1.83387,144.601
1.84289,178.002
1.85062,218.596
1.8581,273.244
1.86531,345.771
1.87304,451.081
1.88077,588.925
1.89237,848.586
1.90551,1150.71
1.91458,1290.2
1.92171,1325.97
1.92942,1281.54
1.93849,1134.65
1.96194,600.282
1.97019,451.584
1.97766,348.338
1.98487,273.917
1.99209,219.222
1.99982,176.785
2.00884,141.883
2.01811,116.788
2.02894,96.2832
2.04156,79.805
2.05496,67.7584
2.07171,57.5683
2.08846,50.8133
2.10995,45.3887
2.13214,42.4356
2.15433,41.569
2.17601,42.6119
2.1977,45.8033
2.21687,51.0769
2.23101,57.1668
2.24751,68.0316
2.25929,79.7618
2.27029,95.5741
2.28066,117.214
2.28915,142.173
2.29763,176.265
2.30643,224.043
2.31617,293.989
2.33176,437.107
2.34641,568.921
2.35596,622.275
2.36285,634.349
2.37054,619.093
2.38173,550.392
2.40794,315.553
2.41784,245.776
2.42648,200.258
2.43591,165.218
2.44534,142.292
2.45382,129.492
2.46451,121.343
2.46985,120.022
2.48338,124.082
2.49393,135.051
2.50299,151.292
2.51205,176.057
2.5211,212.673
2.52865,255.495
2.53726,322.068
2.54677,422.09
2.55764,571.361
2.58064,929.134
2.59079,1030.74
2.59871,1055.96
2.6077,1020.06
2.61832,901.869
2.64429,494.635
2.65455,364.71
2.66286,283.893
2.67131,221.76
2.68007,174.598
2.68822,142.435
2.69773,115.03
2.70769,94.3154
2.72037,75.6089
2.73215,63.18
2.74573,52.6247
2.76204,43.4336
2.78015,36.074
2.80189,29.7468
2.82725,24.5309
2.85503,20.4894
2.88884,17.0288
2.93172,14.0428
2.97881,11.8338
3.03376,10.093
3.10622,8.62674
3.17868,7.73984
3.25327,7.23099
3.33211,7.04283
3.40519,7.18263
3.47828,7.68625
3.54574,8.62187
3.60196,9.9662
3.64693,11.6625
3.68348,13.7186
3.71383,16.1866
3.7425,19.5405
3.76612,23.4987
3.78636,28.2677
3.80575,34.7509
3.82093,41.9123
3.83541,51.5074
3.8482,63.607
3.85916,78.3261
3.86843,95.623
3.87687,116.987
3.8853,145.852
3.89429,187.768
3.90329,244.376
3.91313,326.161
3.92409,442.14
3.95085,767.484
3.96176,859.595
3.97282,893.128
3.98155,870.603
3.99256,786.965
4.01179,558.789
4.02697,379.961
4.03765,279.693
4.04651,215.511
4.05452,170.91
4.06337,133.898
4.07124,109.441
4.08052,88.1221
4.09134,70.4275
4.1023,57.7275
4.11608,46.4836
4.13154,37.7345
4.1484,31.0406
4.16808,25.5457
4.19057,21.1602
4.21811,17.4797
4.24903,14.7052
4.28698,12.4827
4.32493,11.0581
4.35528,10.295
4.4115,9.4943
4.46772,9.27326
4.52197,9.52221
4.57622,10.2496
4.62683,11.488
4.67017,13.1931
4.70629,15.3562
4.73685,18.0629
4.76352,21.5243
4.78575,25.7272
4.80409,30.716
4.81909,36.5014
4.83159,43.2283
4.84451,53.1303
4.85534,65.093
4.86437,78.907
4.87354,97.9861
4.88326,125.69
4.89243,160.727
4.90243,210.457
4.91382,281.935
4.943,495.435
4.95466,557.412
4.96607,583.564
4.96784,584.044
4.97867,565.776
4.99023,510.969
5.02606,258.292
5.03801,191.45
5.04801,148.925
5.05774,118.268
5.06746,96.2085
5.07691,81.0503
5.08802,68.8843
5.10135,59.7095
5.11469,54.3302
5.13247,50.8698
5.14536,50.2054
5.16533,51.5418
5.1893,56.6645
5.21212,65.6504
5.23263,78.534
5.24973,94.6506
5.26398,114.043
5.27595,136.94
5.28791,169.271
5.29817,208.402
5.30757,257.862
5.31698,325.456
5.32595,412.402
5.33493,526.775
5.34547,702.024
5.35687,943.056
5.38992,1775.72
5.40269,1998.11
5.41459,2072.47
5.42526,2013.84
5.43688,1829.08
5.45689,1339.26
5.47498,887.988
5.48695,648.115
5.49707,491.109
5.50618,382.911
5.51473,305.644
5.52328,247.039
5.5324,200.232
5.54266,161.66
5.55463,129.58
5.56659,106.665
5.58198,85.7053
5.59737,70.7907
5.61488,58.4491
5.63531,48.059
5.6604,39.0797
5.68763,32.4242
5.71056,28.6441
5.7335,26.2943
5.76881,24.8152
5.80596,23.3796
5.85733,19.2361
5.87912,18.203
5.88944,18.0299
5.91179,18.3771
5.93759,20.1484
5.95493,22.504
5.96937,25.6385
5.98382,30.5339
5.99422,35.7898
6.00463,43.2366
6.01503,53.7842
6.02544,68.5317
6.03515,87.0812
6.04597,114.049
6.05901,155.403
6.09203,275.686
6.10635,309.0
6.11669,316.616
6.12765,307.764
6.14197,273.171
6.18026,134.548
6.19247,99.2301
6.20218,77.2564
6.21189,60.3331
6.22049,48.9274
6.23021,39.2659
6.23992,32.1884
6.25074,26.4765
6.26322,21.8152
6.27821,17.9524
6.29347,15.2085
6.31289,12.7564
6.3362,10.7349
6.36335,9.13187
6.39953,7.73819
6.43053,6.96674
6.472,6.35449
6.51346,6.1593
6.54797,6.38991
6.568,6.78786
6.58804,7.53458
6.60307,8.49517
6.61559,9.74226
6.62812,11.6326
6.63953,14.1848
6.65066,17.7313
6.66179,22.6041
6.67431,29.9031
6.69045,41.9733
6.71717,63.7408
6.73164,71.8675
6.74469,74.4197
6.75836,71.5116
6.77283,63.0931
6.80984,33.1227
6.82237,24.9177
6.83294,19.4875
6.84407,15.1634
6.85437,12.2285
6.8662,9.82364
6.87802,8.15773
6.89194,6.82218
6.9053,5.94289
6.92311,5.13774
6.94092,4.58332
6.96986,3.98162
7.00326,3.54263
7.04778,3.18269
7.10597,2.92077
7.16416,2.79798
7.20295,2.77428
7.28021,2.86426
7.33816,3.09083
7.37964,3.39563
7.4129,3.79224
7.44061,4.30358
7.46694,5.06458
7.48773,6.01894
7.50436,7.20347
7.51738,8.58562
7.52916,10.3842
7.54094,12.9602
7.55175,16.2842
7.56283,20.9537
7.57378,27.091
7.58625,36.1238
7.60413,52.4384
7.62962,77.1342
7.6457,87.7568
7.65896,90.6912
7.67164,87.8473
7.68561,79.077
7.71387,52.2524
7.73175,36.198
7.74422,27.349
7.75517,21.3545
7.76625,16.8095
7.77685,13.6441
7.7887,11.1467
7.80187,9.28545
7.81447,8.10642
7.82861,7.23819
7.84745,6.54648
7.8663,6.19034
7.88515,6.06411
7.9092,6.17011
7.93325,6.56839
7.95789,7.34826
7.9794,8.48492
7.99661,9.89635
8.01167,11.7462
8.02538,14.2534
8.03748,17.4968
8.04837,21.6504
8.05846,26.9525
8.06814,33.7685
8.07782,42.6711
8.08871,55.5805
8.10202,75.7544
8.12406,117.414
8.14289,153.011
8.15665,171.99
8.17136,180.433
8.17274,180.493
8.18677,173.919
8.20204,153.852
8.24183,78.7191
8.25501,58.2063
8.26711,43.4766
8.27679,34.4144
8.28727,26.9473
8.29776,21.4525
8.30744,17.7206
8.31954,14.367
8.33164,12.0231
8.34508,10.1935
8.36229,8.59443
8.3838,7.28465
8.40531,6.41956
8.43328,5.68539
8.47522,5.06619
8.51717,4.78911
8.54406,4.73306
8.60439,4.87839
8.66472,5.38459
8.71515,6.15015
8.75717,7.13549
8.7992,8.61944
8.83058,10.254
8.85748,12.2401
8.88101,14.6869
8.90119,17.6311
8.918,21.0465
8.93481,25.8946
8.94742,31.034
8.96002,38.1952
8.97095,46.8212
8.98076,57.2687
8.99056,71.1548
9.00107,90.9707
9.01186,117.926
9.02362,156.319
9.03749,214.426
9.05865,324.808
9.08162,446.777
9.09597,501.565
9.1113,525.937
9.11273,526.117
9.12735,507.279
9.14326,449.497
9.18725,218.887
9.20056,162.37
9.21246,122.544
9.22325,94.7887
9.23404,73.8233
9.24412,59.1831
9.25421,48.2514
9.2643,40.1044
9.27606,33.1378
9.28783,28.0804
9.30464,23.0123
9.32145,19.5431
9.34247,16.5626
9.36628,14.3053
9.39486,12.572
9.4222,11.5708
9.45784,10.9451
9.47566,10.8683
9.51428,11.2053
9.55289,12.3128
9.57864,13.623
9.60588,15.753
9.62857,18.4349
9.64673,21.5421
9.66262,25.395
9.6768,30.2588
9.69099,37.2487
9.70347,46.1023
9.71482,57.3751
9.72617,72.9095
9.73766,94.3638
9.74858,121.398
9.7605,159.436
9.77582,221.941
9.81922,436.9
9.83375,487.992
9.84927,510.697
9.85073,510.874
9.86553,493.528
9.88164,439.895
9.92817,212.949
9.94179,159.384
9.95314,124.043
9.9651,95.5622
9.97506,77.8471
9.98503,64.6796
9.99672,53.8899
10.0084,47.0059
10.0217,42.758
10.0328,41.4614
10.0384,41.4182
10.0572,43.4767
10.0974,51.285
10.112,52.3042
10.1302,50.927
10.1581,44.2256
10.1859,36.7273
10.2047,33.8852
10.213,33.5842
10.2269,34.686
10.2405,38.1414
10.2519,43.3148
10.2633,51.2086
10.2739,61.7665
10.2846,76.2185
10.2952,95.4259
10.3073,123.898
10.32,162.42
10.3382,230.657
10.3717,366.555
10.3868,409.242
10.4031,427.255
10.4035,427.274
10.4169,416.04
10.4341,371.992
10.4622,259.825
10.4834,175.609
10.4973,130.943
10.5101,98.7579
10.5209,77.8186
10.5328,60.3658
10.5447,47.696
10.5572,38.2626
10.5697,31.6337
10.5853,25.994
10.6031,21.8139
10.623,18.8773
10.64,17.2528
10.6627,15.9394
10.6952,15.2876
10.7235,15.7331
10.7518,17.235
10.7748,19.5448
10.7954,22.9543
10.8119,27.1903
10.8264,32.6888
10.839,39.6326
10.8508,48.6815
10.8626,61.192
10.8744,78.2925
10.8858,100.2
10.8987,132.968
10.9136,181.501
10.936,272.944
10.964,390.073
10.9791,434.325
10.9952,453.831
10.9967,453.967
11.0121,438.736
11.0288,391.877
11.0627,249.659
11.0825,171.705
11.097,125.86
11.1097,95.0244
11.1211,73.8932
11.1326,57.7276
11.1429,46.8172
11.1552,37.141
11.1662,30.8985
11.1809,24.8164
11.1956,20.5462
11.2127,17.0266
11.2333,14.0454
11.2581,11.5674
11.2887,9.49123
11.3159,8.2133
11.3432,7.30858
11.3765,6.61207
11.4043,6.40218
11.4209,6.51112
11.4373,6.88576
11.4531,7.61544
11.4689,8.8449
11.4853,10.7796
11.502,13.4955
11.5519,23.6224
11.5715,25.9605
11.5816,26.3001
11.5963,25.6136
11.6163,22.711
11.664,12.3367
11.6807,9.40228
11.6944,7.53513
11.7076,6.18582
11.7208,5.19883
11.7367,4.37147
11.7562,3.73036
11.7784,3.28709
11.8117,2.90958
11.8606,2.63059
11.914,2.52795
11.946,2.57935
11.9708,2.73564
11.9874,2.94579
12.0051,3.32358
12.0215,3.8782
12.0387,4.73097
12.0581,6.03783
12.1039,9.74102
12.1244,10.771
12.1366,10.9517
12.1529,10.6355
12.1701,9.69341
12.2215,5.57637
12.2408,4.37845
12.2572,3.65093
12.2736,3.15739
12.2916,2.81991
12.3137,2.5936
12.349,2.46009
12.3678,2.44825
12.4241,2.5423
12.4721,2.74702
12.5202,3.09158
12.5649,3.60952
12.5966,4.17162
12.6283,5.01964
12.6505,5.9079
12.6712,7.12574
12.6888,8.64649
12.7047,10.6341
12.7174,12.8543
12.7297,15.7624
12.742,19.6418
12.7547,24.9065
12.7688,32.5653
12.7846,43.6801
12.8075,63.9122
12.841,95.4592
12.8598,107.996
12.8787,112.587
12.8948,109.24
12.9122,98.8288
12.9431,70.6761
12.9691,46.8328
12.9866,34.1153
13.0003,26.3353
13.0139,20.4555
13.0269,16.2284
13.0396,13.1779
13.0537,10.7123
13.0677,8.9459
13.0854,7.40057
13.1051,6.22672
13.1297,5.24953
13.1565,4.54596
13.1917,3.9422
13.234,3.49386
13.2811,3.19781
13.3382,3.00951
13.4142,2.93481
13.5003,3.01797
13.5864,3.26573
13.6495,3.60838
13.6882,3.99105
13.7147,4.45532
13.7369,5.09533
13.7579,6.03908
13.78,7.48353
13.8132,10.4037
13.8408,12.8379
13.8629,14.0754
13.8784,14.3298
13.9005,13.7782
13.9348,11.5382
13.968,9.31255
13.989,8.39381
14.0156,7.8557
14.0288,7.80139
14.0642,8.13307
14.1085,9.20044
14.1476,10.744
14.1774,12.6121
14.1987,14.6961
14.2162,17.2344
14.2337,20.8782
14.2513,25.9772
14.2712,33.801
14.303,49.8225
14.3354,65.6344
14.3583,72.3072
14.3747,73.9182
14.4306,69.4571
14.4499,71.2914
14.4648,76.578
14.478,85.307
14.4925,100.759
14.5041,119.073
14.5171,148.183
14.5291,185.255
14.5417,238.186
14.5539,305.783
14.5671,400.833
14.5827,544.759
14.6024,771.405
14.6436,1293.05
14.6606,1447.4
14.6794,1520.8
14.6818,1521.72
14.7003,1463.82
14.7217,1273.48
14.7733,625.969
14.7901,455.022
14.804,343.93
14.8166,264.764
14.8292,204.182
14.8418,158.859
14.854,126.458
14.8661,102.428
14.8802,82.1451
14.8953,66.7763
14.9133,53.8356
14.9307,44.954
14.9517,37.1897
14.977,30.5309
15.0085,24.6936
15.04,20.566
15.0779,17.0272
15.1241,14.0338
15.1746,11.8366
15.2251,10.3849
15.2889,9.32155
15.3367,9.01711
15.3526,9.01613
15.3956,9.33174
15.4277,10.0116
15.4559,11.1712
15.4791,12.8812
15.4965,14.9701
15.511,17.5653
15.5255,21.3053
15.5391,26.2606
15.5521,32.7067
15.5652,41.1812
15.5803,53.8442
15.5991,74.0573
15.6496,138.373
15.6714,157.16
15.689,162.22
15.7057,157.488
15.7226,144.18
15.7525,107.97
15.7824,70.2777
15.7998,52.5454
15.8137,41.3657
15.8275,32.8412
15.8412,26.5142
15.8554,21.846
15.8699,18.5585
15.8873,16.0042
15.9047,14.4631
15.9279,13.3845
15.9593,12.9766
15.9845,13.2192
16.0248,14.4699
16.0631,16.7632
16.0951,19.8613
16.1207,23.5971
16.1421,28.1657
16.1609,33.9575
16.176,40.4963
16.1901,48.9567
16.2042,60.6894
16.2183,77.0433
16.231,97.1101
16.2447,125.972
16.2589,166.118
16.2745,223.149
16.2927,308.312
16.3491,627.823
16.3707,708.115
16.3878,729.293
16.4051,707.7
16.4219,649.236
16.4482,509.279
16.4821,315.125
16.5009,227.333
16.5152,174.8
16.5294,134.101
16.5422,106.658
16.556,84.581
16.568,70.5239
16.5818,59.0608
16.596,51.1375
16.6105,46.0449
16.6251,43.3829
16.6324,42.8599
16.6469,43.4062
16.6625,46.5922
16.6782,53.0858
16.6919,62.2362
16.7055,75.4568
16.72,94.7132
16.7347,120.741
16.7522,160.074
16.784,249.275
16.8129,326.718
16.8346,362.363
16.8487,369.191
16.8682,355.131
16.8911,309.002
16.9446,156.686
16.9627,114.52
16.9789,84.7805
16.9925,65.7447
17.006,51.2518
17.0195,40.4722
17.0331,32.5724
17.0475,26.4923
17.0619,22.1346
17.08,18.3138
17.098,15.6608
17.1221,13.2246
17.1521,11.214
17.1848,9.78629
17.2277,8.62657
17.2792,7.93894
17.3136,7.81739
17.3615,8.1007
17.3975,8.74426
17.4286,9.74103
17.4542,11.0326
17.4798,13.0256
17.4989,15.2713
17.5181,18.5551
17.5341,22.4888
17.5501,27.9982
17.565,35.1124
17.5804,44.9609
17.5958,57.9471
17.6142,78.1054
17.6379,111.417
17.6843,184.441
17.7047,207.767
17.7266,218.212
17.7286,218.293
17.7495,210.27
17.7721,185.652
17.8329,91.5437
17.8516,67.9892
17.8678,51.9548
17.884,39.6689
17.8984,31.4519
17.9143,24.7102
17.9303,19.8814
17.9463,16.4444
17.9634,13.8681
17.9805,12.0982
18.0019,10.7388
18.0191,10.2085
18.0277,10.1119
18.0509,10.3834
18.078,11.5731
18.1335,15.0459
18.1582,15.6956
18.1608,15.6975
18.1856,15.0251
18.2096,13.3191
18.2702,7.51633
18.2928,5.83971
18.3138,4.69558
18.335,3.88659
18.3592,3.28356
18.385,2.87643
18.4173,2.55579
18.456,2.30787
18.5308,2.01361
18.6057,1.83953
18.6939,1.72638
18.7821,1.69356
18.8742,1.75203
18.9357,1.86276
18.9971,2.06327
19.0438,2.3119
19.0918,2.7157
19.1238,3.12703
19.1558,3.73945
19.1801,4.43864
19.1996,5.24613
19.219,6.4144
19.2336,7.65246
19.2493,9.4845
19.2649,12.0467
19.279,15.1902
19.2941,19.6953
19.3087,25.3756
19.3258,33.8531
19.3477,47.633
19.4005,85.9497
19.4202,96.2398
19.442,101.148
19.4447,101.211
19.4661,97.366
19.4909,84.6984
19.5496,42.4162
19.5686,31.2746
19.5858,23.2982
19.6018,17.6443
19.6164,13.7604
19.6305,10.9539
19.6458,8.71336
19.6591,7.27083
19.6744,6.05016
19.6946,4.91974
19.7141,4.16334
19.7384,3.50118
19.7676,2.9564
19.8069,2.47018
19.8463,2.15079
19.8856,1.93549
19.9482,1.73636
20.0007,1.67961
20.0473,1.72804
20.0838,1.87786
20.1056,2.0573
20.1275,2.35501
20.1452,2.72879
20.1625,3.2605
20.1798,4.00884
20.1993,5.17164
20.2193,6.75819
20.2485,9.6814
20.2893,13.9483
20.3097,15.4251
20.3328,16.0562
20.3563,15.4043
20.3811,13.5176
20.4401,7.38251
20.462,5.56488
20.4795,4.45194
20.4959,3.67094
20.5123,3.10768
20.5319,2.6592
20.5516,2.39505
20.5713,2.26413
20.59,2.23504
20.6144,2.32337
20.6327,2.49725
20.651,2.79975
20.6693,3.29289
20.6851,3.94755
20.7007,4.88529
20.7143,6.02358
20.7298,7.7847
20.7443,9.94224
20.7621,13.3626
20.7843,18.7777
20.8311,31.787
20.8555,36.8037
20.8776,38.6216
20.8796,38.636
20.9014,37.1564
20.9256,32.4681
20.9834,16.6157
21.0023,12.3068
21.0201,9.11058
21.0352,7.0498
21.0488,5.62333
21.0624,4.5475
21.078,3.65564
21.0935,3.03158
21.1102,2.57109
21.1269,2.25592
21.1492,1.97862
21.1825,1.73605
21.2218,1.58829
21.261,1.52206
21.2872,1.5094
21.3404,1.55026
21.3937,1.6916
21.4361,1.91492
21.4708,2.23318
21.4916,2.53046
21.5124,2.96336
21.5298,3.4833
21.5471,4.21747
21.5645,5.25287
21.5819,6.69362
21.5996,8.69799
21.6189,11.5926
21.6405,15.7528
21.706,30.8378
21.7287,34.2843
21.7498,35.4117
21.771,34.2762
21.7947,30.6237
21.8634,14.9801
21.8838,11.2276
21.903,8.49804
21.9195,6.73122
21.9342,5.54536
21.9525,4.47105
21.9684,3.82059
21.9898,3.23991
22.0112,2.89669
22.0389,2.69549
22.0494,2.67584
22.0705,2.71836
22.1029,2.97082
22.1772,3.89166
22.2106,4.05192
22.2428,3.90241
22.3333,2.817
22.3682,2.59956
22.3925,2.56111
22.4305,2.66318
22.4692,2.96608
22.495,3.32127
22.5184,3.81865
22.5392,4.49181
22.5574,5.34994
22.5756,6.56143
22.5936,8.21788
22.6132,10.6356
22.6369,14.4781
22.701,27.4245
22.7229,30.773
22.7485,32.5952
22.7543,32.6501
22.7749,31.8307
22.8094,27.9575
22.8408,24.2331
22.8565,23.2803
22.8656,23.2131
22.8833,24.4228
22.8995,27.4761
22.915,32.5245
22.9306,39.9771
22.9485,51.8606
22.9695,70.1341
23.0096,113.957
23.0395,144.563
23.0646,160.379
23.0819,163.499
23.102,158.817
23.1269,143.142
23.1712,108.386
23.1903,99.303
23.2035,97.0952
23.2206,99.7367
23.2357,107.065
23.262,128.278
23.2995,162.443
23.3228,174.912
23.3344,176.566
23.355,171.02
23.3801,150.987
23.4242,97.5479
23.4517,65.7532
23.471,47.9294
23.4879,35.8744
23.5019,28.166
23.516,22.2948
23.5301,17.9352
23.5441,14.7628
23.5605,12.1787
23.5769,10.446
23.5952,9.18453
23.6196,8.18586
23.65,7.56879
23.6886,7.35404
23.7311,7.60866
23.7784,8.44983
23.8162,9.65037
23.8496,11.2932
23.8795,13.5156
23.9035,16.1452
23.925,19.5756
23.9426,23.5807
23.9602,29.2172
23.9761,36.2996
23.9919,46.0265
24.006,57.5932
24.0201,72.608
24.0356,93.893
24.0525,123.601
24.0743,172.452
24.1075,264.394
24.1441,366.755
24.1706,416.333
24.1919,429.583
24.2123,417.001
24.2329,381.679
24.2667,292.023
24.3061,180.3
24.3273,131.366
24.3463,96.6594
24.3611,75.634
24.3752,59.914
24.3893,47.744
24.4034,38.455
24.4185,30.9712
24.4344,25.2152
24.452,20.5944
24.4724,16.8162
24.4971,13.6877
24.5217,11.5152
24.5496,9.76037
24.5901,7.99935
24.6306,6.80821
24.6814,5.80252
24.7328,5.14472
24.7945,4.72811
24.8151,4.69588
24.8529,4.84973
24.8863,5.29334
24.9315,6.34135
24.9796,7.49877
25.0141,7.84196
25.0181,7.8443
25.0557,7.53932
25.1175,6.66127
25.1411,6.54612
25.1794,6.79007
25.2087,7.33168
25.2453,8.43965
25.2819,10.1376
25.3085,11.924
25.335,14.4772
25.3563,17.4132
25.3745,20.9265
25.3934,26.065
25.4105,32.563
25.4276,41.5554
25.4435,52.9477
25.4595,68.015
25.4764,88.7991
25.4951,118.491
25.5171,162.198
25.5854,323.174
25.607,358.826
25.6307,375.74
25.6337,375.966
25.6571,362.837
25.6841,319.064
25.755,152.62
25.7772,110.666
25.7945,84.833
25.8104,66.0658
25.8264,51.5857
25.8429,40.3258
25.8582,32.5398
25.8753,26.1891
25.8943,21.179
25.9155,17.3011
25.9368,14.6156
25.9633,12.3089
25.996,10.4489
26.0327,9.14262
26.0768,8.29215
26.1184,8.05091
26.1573,8.33306
26.1872,9.0008
26.2096,9.89689
26.232,11.3251
26.2514,13.2214
26.2694,15.7779
26.2873,19.4311
26.3052,24.5733
26.3213,30.8042
26.3396,40.178
26.3605,54.2434
26.3829,73.2898
26.4502,140.484
26.4777,159.771
26.5052,167.526
26.5082,167.628
26.5398,161.106
26.6455,110.411
26.6952,85.7121
26.7674,41.3346
26.7902,29.7678
26.808,22.5959
26.8244,17.4258
26.8408,13.5039
26.8572,10.6309
26.8735,8.58421
26.8913,7.0569
26.9108,5.94551
26.9331,5.139
26.961,4.52574
26.9945,4.08874
27.0392,3.76004
27.09,3.59468
27.1185,3.57937
27.1742,3.7121
27.2113,3.94872
27.2484,4.36699
27.2797,4.95945
27.3054,5.73003
27.3279,6.75945
27.3471,8.05207
27.3664,9.89656
27.3839,12.2211
27.4017,15.4168
27.4213,20.1034
27.4423,26.6873
27.4652,35.7067
27.5008,53.0459
27.6679,142.679
27.7001,151.997
27.7085,152.467
27.7356,147.022
27.7617,131.824
27.8,97.486
27.8368,62.8005
27.8588,45.5451
27.8775,33.9351
27.894,26.0244
27.9096,20.3402
27.9252,16.1326
27.9408,13.1115
27.9542,11.2586
27.9716,9.61394
27.9889,8.59827
28.0063,8.03228
28.0237,7.80433
28.0448,7.90823
28.066,8.43708
28.0871,9.5029
28.1056,11.0612
28.1219,13.1374
28.1379,16.047
28.1539,20.1148
28.1699,25.67
28.1865,33.3506
28.2045,44.2784
28.2243,59.6847
28.2522,86.6319
28.3002,137.361
28.3242,156.31
28.3481,165.469
28.3548,165.932
28.3769,160.806
28.3984,147.02
28.4333,112.855
28.4738,70.3299
28.4967,50.7282
28.5155,38.0085
28.5327,29.1201
28.5481,23.0629
28.5618,18.9909
28.5761,15.8335
28.5923,13.3189
28.6086,11.7178
28.6249,10.8534
28.6412,10.6341
28.652,10.84
28.668,11.6968
28.6839,13.3298
28.6998,15.9314
28.7157,19.7471
28.7313,24.9308
28.7486,32.6491
28.7677,43.7491
28.7926,62.2234
28.8527,113.37
28.8796,128.854
28.9027,133.453
28.9273,128.273
28.9524,113.59
29.0235,53.7512
29.0444,39.5174
29.0626,29.703
29.079,22.901
29.0955,17.848
29.1099,14.6297
29.1244,12.3183
29.1395,10.6576
29.1561,9.53855
29.1727,8.97539
29.1832,8.85332
29.2042,9.09155
29.2252,9.99251
29.2409,11.1982
29.2567,13.0053
29.2727,15.6696
29.2887,19.4425
29.3048,24.6619
29.3208,31.7023
29.3363,40.5584
29.3543,53.8024
29.3769,75.0303
29.409,112.365
29.449,160.746
29.4742,183.064
29.4994,192.946
29.5038,193.165
29.5292,185.556
29.5521,167.239
29.5947,117.072
29.6297,76.0232
29.6517,55.0882
29.6683,42.5406
29.6855,32.4006
29.6998,25.9368
29.7145,20.8969
29.7303,17.0196
29.7461,14.4159
29.7597,13.0058
29.7732,12.2228
29.7855,11.9758
29.8011,12.2128
29.8231,13.4352
29.8524,16.2916
29.9092,23.0018
29.9382,25.0179
29.9524,25.2864
29.9774,24.4645
30.0073,21.5631
30.0811,11.1574
30.1049,8.46784
30.127,6.56086
30.1465,5.32825
30.1633,4.55368
30.1855,3.83717
30.2084,3.37359
30.2318,3.08584
30.2669,2.86427
30.3183,2.77679
30.369,2.84587
30.4366,3.14483
30.4817,3.52776
30.5215,4.09795
30.5481,4.70481
30.5714,5.49519
30.5927,6.54618
30.6136,8.02417
30.6346,10.0992
30.6555,12.9299
30.6774,16.8374
30.7057,23.323
30.7936,47.8957
30.8951,70.2676
30.9476,88.2323
31.0034,107.501
31.0792,124.047
31.1089,137.764
31.1406,163.694
31.2088,237.915
31.2365,254.073
31.2471,255.412
31.2703,247.902
31.2992,220.012
31.3441,153.07
31.3794,100.487
31.4023,72.6936
31.421,54.726
31.4391,41.2354
31.4542,32.5855
31.4695,25.8005
31.4864,20.2588
31.5033,16.2505
31.5181,13.6805
31.5371,11.2931
31.5563,9.62503
31.5819,8.14037
31.6074,7.18964
31.633,6.5845
31.6682,6.15865
31.6858,6.10352
31.7154,6.27385
31.7394,6.72558
31.7635,7.58878
31.7845,8.83706
31.8039,10.5677
31.8237,13.1005
31.8435,16.6163
31.8633,21.3031
31.8879,28.9064
31.9199,41.4507
31.9724,63.6008
32.0018,72.3044
32.0297,75.2249
32.0518,73.2806
32.0812,65.4268
32.1261,46.8132
32.1641,30.9118
32.1897,22.2656
32.2105,16.7932
32.2301,12.8461
32.2481,10.1115
32.2661,8.06805
32.2845,6.53259
32.3042,5.35155
32.3238,4.50327
32.3462,3.81025
32.3768,3.16439
32.409,2.70694
32.455,2.27042
32.5103,1.93013
32.5703,1.68554
32.6503,1.47496
32.7504,1.32067
32.8304,1.2535
32.9404,1.22288
33.0574,1.26987
33.1355,1.37023
33.194,1.52799
33.233,1.73495
33.2581,1.96221
33.2804,2.27229
33.3027,2.73608
33.3222,3.31611
33.3417,4.10342
33.3634,5.26675
33.3888,7.0233
33.4375,11.2468
33.4743,14.2252
33.5031,15.6597
33.5227,15.9682
33.5523,15.3422
33.5846,13.4665
33.6454,9.04294
33.6694,7.77588
33.6928,7.05049
33.7095,6.89328
33.7262,7.07685
33.7429,7.65431
33.7568,8.4904
33.773,9.97108
33.7892,12.1353
33.8053,15.1685
33.8226,19.6178
33.8398,25.5582
33.8571,33.2621
33.8766,44.3328
33.9029,63.193
33.9729,121.676
34.0028,138.458
34.0278,143.294
34.0551,137.648
34.0854,119.9
34.1588,59.2802
34.1817,43.8215
34.2005,33.8118
34.217,27.0174
34.2335,21.9631
34.2483,18.755
34.2637,16.5984
34.2752,15.6665
34.2906,15.2197
34.3106,15.8007
34.3291,17.2906
34.3589,21.0153
34.4106,28.3701
34.4405,31.0138
34.4596,31.4997
34.4881,30.2854
34.5162,27.1427
34.5861,16.5431
34.6074,14.0817
34.6251,12.6739
34.6453,11.9048
34.6532,11.8767
34.6689,12.3303
34.6846,13.5474
34.7003,15.6535
34.7175,19.172
34.7348,24.1725
34.752,30.8718
34.7715,40.6487
34.7961,56.434
34.8404,91.4945
34.8755,118.087
34.9039,132.495
34.9278,136.589
34.9538,131.737
34.9827,116.397
35.0616,55.2503
35.0835,41.3423
35.1032,31.3592
35.1196,24.8647
35.1375,19.4944
35.1537,15.9964
35.1699,13.5779
35.1834,12.267
35.1996,11.431
35.2104,11.2846
35.2247,11.5814
35.2426,12.758
35.2605,14.912
35.2783,18.1775
35.2973,23.0297
35.3175,29.8633
35.3409,40.0419
35.3834,62.8105
35.4202,82.194
35.4504,92.8157
35.4746,95.6419
35.5014,92.1016
35.5309,81.1158
35.6091,38.9204
35.6337,28.0873
35.6538,21.0936
35.6722,16.1254
35.6886,12.7462
35.7045,10.2333
35.7204,8.34504
35.739,6.75252
35.7549,5.77863
35.7756,4.89247
35.801,4.20029
35.8263,3.77205
35.8465,3.54838
35.887,3.29997
35.9275,3.2436
35.9644,3.37103
35.9921,3.64539
36.0151,4.07486
36.0382,4.79724
36.0589,5.81884
36.0787,7.24607
36.097,9.06316
36.1153,11.441
36.1395,15.5048
36.1717,22.3962
36.2302,36.0153
36.2639,41.398
36.2946,43.3335
36.302,43.3721
36.3429,41.4223
36.4095,36.523
36.4957,32.32
36.5465,27.3859
36.5999,21.7201
36.6261,20.1878
36.6378,19.9944
36.6553,20.4513
36.6712,21.8247
36.6862,24.1973
36.7038,28.6707
36.7188,34.4018
36.7338,42.3981
36.7496,53.9024
36.7662,70.2288
36.7828,91.855
36.7994,119.739
36.8195,162.548
36.8416,221.356
36.8807,348.638
36.9208,480.024
36.9519,550.426
36.9788,571.49
37.0027,554.646
37.0292,500.699
37.0693,374.753
37.1124,232.097
37.1372,164.656
37.1571,121.809
37.1746,91.9374
37.1919,69.1964
37.2077,53.3859
37.2235,41.4374
37.2384,32.9712
37.2542,26.3065
37.27,21.4173
37.2885,17.3252
37.3095,14.0961
37.3314,11.8004
37.3577,9.89814
37.3878,8.41285
37.4254,7.14934
37.4743,6.07238
37.5307,5.30051
37.5984,4.7918
37.6724,4.60318
37.7302,4.68584
37.8024,5.09978
37.8602,5.76275
37.9106,6.71658
37.953,7.97427
37.9884,9.59075
38.0166,11.5536
38.0372,13.6107
38.0577,16.5024
38.0757,20.0413
38.0937,24.926
38.1104,31.1097
38.1277,39.7586
38.1451,51.3103
38.163,67.0772
38.181,87.3855
38.2016,116.774
38.2286,165.396
38.3018,324.621
38.33,371.263
38.3573,393.347
38.3657,394.71
38.3943,379.59
38.4199,342.971
38.4649,248.395
38.507,157.964
38.5317,114.596
38.5535,84.3329
38.5728,63.7558
38.5889,50.5289
38.6051,40.2691
38.6224,32.1291
38.6397,26.3152
38.657,22.2966
38.6747,19.5971
38.6946,17.7849
38.7224,16.7344
38.7379,16.6131
38.7978,17.0043
38.8393,16.4199
38.881,14.474
38.9698,8.50598
39.0009,6.90427
39.0331,5.74465
39.0608,5.11017
39.0941,4.69205
39.1359,4.53639
39.1796,4.68837
39.2233,5.16818
39.2561,5.87316
39.278,6.64255
39.3001,7.84666
39.3199,9.48664
39.3367,11.5398
39.3536,14.4478
39.3677,17.7487
39.3827,22.4124
39.3978,28.5607
39.4148,37.6218
39.4317,49.3474
39.4512,66.4559
39.475,92.8968
39.5119,143.515
39.5559,205.854
39.5876,237.694
39.6153,248.251
39.6172,248.295
39.6432,240.034
39.6749,210.448
39.7523,105.025
39.7778,77.0307
39.7963,61.4569
39.8148,50.0264
39.8306,43.4001
39.8483,39.192
39.8627,38.0378
39.877,38.6887
39.8985,42.6408
39.9237,51.0743
39.9617,68.8007
40.0097,92.2738
40.0414,102.713
40.071,105.968
40.0994,102.822
40.1799,78.852
40.2052,75.5657
40.2237,76.6981
40.2484,83.5321
40.2728,96.0163
40.3486,148.876
40.3774,160.562
40.3926,162.322
40.4197,157.008
40.4502,139.314
40.4988,96.396
40.5382,61.7985
40.5636,43.7816
40.5833,32.7556
40.601,24.9373
40.6188,18.9271
40.6344,14.9245
40.6499,11.8788
40.6651,9.6386
40.6803,7.96293
40.6985,6.50678
40.7198,5.34312
40.7411,4.55768
40.7702,3.85183
40.8048,3.32412
40.8509,2.89141
40.9086,2.59466
40.9555,2.51543
40.9953,2.60303
41.0252,2.82295
41.0501,3.16466
41.075,3.7104
41.0982,4.45793
41.1214,5.47794
41.1493,7.08177
41.1971,10.5685
41.2436,13.888
41.2778,15.3964
41.2985,15.6853
41.3299,15.154
41.3684,13.1998
41.4334,8.93448
41.46,7.67186
41.4838,7.041
41.4976,6.94242
41.5114,7.06542
41.5298,7.61648
41.5482,8.67134
41.5657,10.2166
41.5866,12.8366
41.6074,16.3983
41.6314,21.7129
41.6631,30.522
41.7277,50.4948
41.7604,57.6515
41.7913,60.3209
41.7949,60.3365
41.8238,58.3138
41.8605,51.4172
41.9196,37.8659
41.9467,33.5312
41.9714,31.2478
42.008,30.2585
42.0456,30.4481
42.0866,29.481
42.1177,26.9954
42.1576,21.8156
42.2207,12.4782
42.2484,9.15997
42.2728,6.88163
42.295,5.3195
42.3155,4.25032
42.3376,3.42238
42.357,2.91251
42.3792,2.50792
42.4097,2.15937
42.4291,2.01853
42.4678,1.84735
42.526,1.74116
42.5572,1.72767
42.616,1.76203
42.6866,1.90195
42.7559,2.16904
42.8116,2.52603
42.8562,2.96763
42.8952,3.56042
42.924,4.22234
42.9482,5.03228
42.9694,6.04376
42.9906,7.48365
43.0087,9.20771
43.0278,11.6995
43.0469,15.1146
43.066,19.717
43.0858,26.0075
43.1049,33.8223
43.1297,46.7429
43.16,66.4779
43.2278,116.731
43.2622,135.402
43.2944,142.794
43.3006,142.944
43.3322,137.786
43.415,103.203
43.4494,94.8945
43.4709,93.53
43.5517,99.4815
43.5867,96.191
43.6217,85.3426
43.6663,63.679
43.7148,38.8527
43.7395,28.4571
43.7618,20.9321
43.7802,16.0557
43.7976,12.4589
43.815,9.70608
43.8323,7.64705
43.8497,6.13546
43.869,4.9424
43.8855,4.21484
43.9044,3.62145
43.928,3.12262
43.9517,2.79799
43.9895,2.49482
44.0248,2.36652
44.0412,2.34939
44.0741,2.4047
44.1037,2.58812
44.1259,2.84509
44.1518,3.32876
44.174,3.95511
44.1964,4.84183
44.2198,6.09652
44.2471,8.02726
44.2837,11.3431
44.3535,18.2953
44.3874,20.5123
44.4155,21.1382
44.4423,20.5729
44.4735,18.6292
44.5269,13.4509
44.5705,9.20355
44.6001,6.93222
44.6198,5.78501
44.6412,4.88641
44.6625,4.33812
44.6839,4.12659
44.7053,4.23932
44.7249,4.62018
44.7495,5.45327
44.779,6.92006
44.8613,12.0828
44.8949,13.4559
44.9193,13.7837
44.9509,13.2649
44.9851,11.6537
45.0722,5.86846
45.1011,4.34031
45.1248,3.37901
45.1484,2.66511
45.1701,2.1957
45.1892,1.90106
45.2146,1.63727
45.24,1.4774
45.2749,1.36344
45.3261,1.31457
45.3319,1.31442
45.3902,1.35245
45.4601,1.47789
45.5276,1.69299
45.5829,1.97322
45.6271,2.31252
45.6669,2.77593
45.6934,3.23075
45.72,3.88277
45.7432,4.70722
45.7631,5.6963
45.7841,7.14394
45.804,9.03773
45.8239,11.6024
45.8438,15.0133
45.8637,19.4404
45.8869,26.065
45.9142,35.9348
45.958,55.5877
46.0111,79.5463
46.0409,88.7504
46.0732,92.4532
46.1054,88.7775
46.1349,79.779
46.225,40.1279
46.2527,30.3317
46.2755,24.2877
46.2955,20.5839
46.3126,18.5792
46.3325,17.5632
46.3382,17.5265
46.3576,18.2137
46.3761,19.9976
46.3993,23.6515
46.4312,30.8145
46.5017,49.7345
46.5351,55.9291
46.5638,57.8452
46.5907,56.3167
46.6229,50.6546
46.6717,37.1827
46.7178,24.0294
46.7457,17.524
46.7688,13.2336
46.7911,10.0653
46.8109,7.94208
46.8307,6.36221
46.8492,5.27636
46.8693,4.43203
46.8935,3.75141
46.9216,3.26739
46.9457,3.02547
46.9772,2.86355
47.0036,2.8221
47.0361,2.86338
47.0795,3.07541
47.112,3.38668
47.1446,3.90858
47.1725,4.64264
47.1943,5.52178
47.2131,6.60221
47.2318,8.11505
47.2505,10.2245
47.268,12.9163
47.285,16.4077
47.304,21.528
47.323,28.2112
47.3431,37.2193
47.3675,51.0471
47.4005,74.4206
47.4699,128.555
47.5036,146.555
47.5345,152.489
47.561,148.247
47.5925,133.154
47.6391,98.3935
47.6868,61.3065
47.7134,44.3174
47.7351,33.1656
47.7565,24.5389
47.7755,18.6814
47.7945,14.2457
47.8102,11.455
47.8289,8.96159
47.8476,7.15789
47.8663,5.86087
47.8881,4.79878
47.9091,4.08893
47.9362,3.4631
47.9688,2.97293
48.0122,2.5642
48.0555,2.31203
48.1055,2.13954
48.1622,2.05266
48.1905,2.04629
48.252,2.12056
48.2982,2.27682
48.3341,2.49322
48.3649,2.79243
48.3905,3.17907
48.4162,3.77543
48.4367,4.49093
48.4572,5.52567
48.4752,6.79948
48.4939,8.62412
48.5124,11.0683
48.5308,14.3154
48.5493,18.5262
48.5701,24.583
48.5947,33.7039
48.6262,48.2694
48.6932,83.1728
48.7281,96.6605
48.7588,101.886
48.7648,102.033
48.7927,98.9199
48.8204,90.2403
48.8614,70.6517
48.9158,42.5392
48.9435,30.7618
48.9671,22.8233
48.9876,17.5086
49.0056,13.9788
49.0235,11.3772
49.0389,9.79516
49.0565,8.62415
49.069,8.16395
49.0857,7.98303
49.1024,8.26238
49.1178,8.90848
49.1389,10.3835
49.1636,12.9187
49.1939,17.0559
49.271,29.2398
49.3045,32.7039
49.3319,33.6395
49.361,32.5408
49.3976,28.4904
49.4846,14.5773
49.5113,11.1132
49.5342,8.78639
49.5571,7.04518
49.58,5.82207
49.5987,5.14084
49.6206,4.63255
49.6497,4.3096
49.668,4.2562
49.708,4.41143
49.7518,4.89605
49.7955,5.69714
49.831,6.66843
49.8632,7.93962
49.8888,9.39065
49.9145,11.4556
49.9365,13.9529
49.9591,17.591
49.9795,22.158
49.9999,28.3911
50.0207,36.9729
50.0415,48.3793
50.063,63.7636
50.0868,85.5193
50.1163,119.528
50.1654,189.139
50.2115,253.502
50.2448,285.719
50.2777,297.322
50.307,288.224
50.3354,263.593
50.3808,203.423
50.4371,123.167
50.4662,89.2969
50.4903,66.9897
50.513,50.8925
50.5319,40.7269
50.5523,32.6384
50.5727,27.1036
50.5902,24.0773
50.6077,22.4089
50.6252,21.9289
50.6422,22.4793
50.6667,24.8279
50.6966,29.7684
50.7819,49.1491
50.8171,54.5793
50.844,55.9367
50.8758,53.9439
50.9089,48.1597
50.9707,32.0002
51.0097,22.1343
51.0395,16.0489
51.0635,12.2707
51.0863,9.54982
51.1091,7.55589
51.1291,6.29154
51.1531,5.23092
51.1771,4.53161
51.2011,4.08003
51.2395,3.67886
51.2847,3.49368
51.3162,3.47358
51.3791,3.6248
51.4421,4.03387
51.4893,4.57303
51.5286,5.26566
51.5644,6.21795
51.5924,7.31237
51.6204,8.90485
51.6449,10.9255
51.6667,13.4551
51.6877,16.7753
51.7087,21.2522
51.7296,27.2021
51.7532,36.0584
51.7777,48.0633
51.8066,66.1818
51.8459,97.0531
51.9106,151.749
51.9455,173.101
51.9802,181.844
51.9837,181.92
52.0176,174.939
52.0557,152.626
52.1501,74.0963
52.1802,53.6011
52.2047,40.3807
52.2287,30.2964
52.2497,23.572
52.2716,18.2772
52.2926,14.5031
52.3135,11.7119
52.3371,9.43827
52.3616,7.76544
52.3896,6.42636
52.4245,5.29476
52.4595,4.52985
52.5077,3.83046
52.5559,3.39241
52.6041,3.15319
52.6282,3.11039
52.6704,3.19993
52.702,3.46847
52.7291,3.90724
52.7563,4.61492
52.7834,5.67232
52.8094,7.07957
52.8384,9.14199
52.8821,13.0985
52.9477,19.3501
52.9808,21.486
53.0144,22.2675
53.0441,21.6501
53.0773,19.6811
53.1723,11.3488
53.1994,9.60249
53.223,8.63592
53.2431,8.27227
53.2531,8.25592
53.2707,8.49772
53.2972,9.49533
53.3236,11.1968
53.3629,14.7258
53.4265,20.9868
53.464,23.4102
53.4907,23.9908
53.5263,23.0808
53.5648,20.2074
53.6586,10.3456
53.6892,7.72497
53.7178,5.83384
53.7429,4.59261
53.7681,3.69206
53.7932,3.06266
53.8153,2.679
53.8463,2.3308
53.885,2.0962
53.9356,1.98042
53.9554,1.97304
54.0028,2.02728
54.0501,2.20345
54.0893,2.49722
54.1204,2.88683
54.1516,3.47969
54.1827,4.34192
54.2164,5.63223
54.2578,7.7305
54.3414,12.5313
54.3834,14.1061
54.4168,14.5038
54.4562,13.9555
54.5612,10.2176
54.594,9.68348
54.5981,9.67229
54.6186,9.84797
54.6432,10.669
54.6614,11.8197
54.6828,13.8945
54.7041,16.9473
54.7255,21.2087
54.7481,27.3193
54.7702,35.1391
54.7961,46.7789
54.8293,65.6443
54.9178,124.594
54.9539,141.433
54.9864,147.508
54.99,147.567
55.0215,142.838
55.0523,130.017
55.106,95.9515
55.1561,62.8161
55.1868,46.034
55.2131,34.7304
55.236,27.119
55.259,21.4355
55.2819,17.4104
55.3049,14.7689
55.3246,13.4254
55.3492,12.7574
55.3541,12.7452
55.3738,13.0689
55.399,14.2925
55.4297,16.8813
55.4711,21.8735
55.5542,33.1086
55.6211,39.2589
55.6716,44.2868
55.7052,50.7246
55.733,59.5211
55.764,73.923
55.8011,97.4397
55.8899,164.018
55.9353,187.069
55.9795,194.697
56.0346,186.661
56.1202,155.975
56.1923,120.888
56.2961,60.998
56.3306,44.286
56.3586,33.3529
56.3826,25.9276
56.4081,19.868
56.4313,15.7341
56.4546,12.6881
56.4778,10.4863
56.5047,8.71352
56.5364,7.35527
56.568,6.50033
56.6101,5.82957
56.6523,5.48396
56.6959,5.35337
56.7647,5.5236
56.8105,5.90464
56.8563,6.57144
56.8977,7.55161
56.9255,8.53623
56.9532,9.95375
56.9809,12.0658
57.004,14.6608
57.0225,17.5449
57.0419,21.6504
57.0616,27.3395
57.0813,35.0454
57.101,45.3317
57.1207,58.8015
57.1429,78.4818
57.1678,107.119
57.1955,147.368
57.2353,218.247
57.3018,342.69
57.3375,388.262
57.3717,403.892
57.4053,388.855
57.4385,347.662
57.4949,244.213
57.5426,156.168
57.5734,110.116
57.5962,83.0212
57.6184,62.2259
57.6387,47.4845
57.6587,36.3925
57.6781,28.29
57.6975,22.2438
57.7169,17.7737
57.7385,14.1728
57.76,11.5985
57.7847,9.51298
57.8093,8.03282
57.8386,6.77466
57.8771,5.61929
57.9233,4.66422
57.9818,3.83404
58.0464,3.20398
58.1111,2.75995
58.1929,2.36962
58.2747,2.10941
58.3564,1.94602
58.4663,1.86327
58.5419,1.91928
58.6015,2.08144
58.6372,2.28088
58.6729,2.6344
58.7011,3.10589
58.7255,3.73922
58.7458,4.50162
58.7661,5.55656
58.7864,6.99293
58.8068,8.90865
58.8267,11.3438
58.8502,15.0477
58.8777,20.587
58.9141,29.8347
58.9915,51.9017
59.0256,58.9723
59.0593,62.0846
59.0658,62.1693
59.0963,60.2887
59.1265,55.0678
59.1714,43.2644
59.2308,26.2158
59.2611,19.0008
59.286,14.2239
59.3098,10.6583
59.3313,8.20455
59.3527,6.35874
59.3743,4.99801
59.3939,4.09882
59.4135,3.44402
59.4359,2.91607
59.464,2.4844
59.492,2.21733
59.5256,2.03071
59.5688,1.92517
59.5847,1.91559
59.6218,1.95579
59.6534,2.07873
59.6851,2.32824
59.7115,2.68673
59.7326,3.11767
59.7537,3.72246
59.7778,4.69175
59.8001,5.90794
59.8251,7.71767
59.8528,10.3317
59.8889,14.6408
59.9728,26.0833
60.0117,29.7774
60.0486,31.0634
60.0508,31.0636
60.0894,29.748
60.1428,25.0663
60.196,20.0765
60.2328,17.8742
60.2627,17.0725
60.2837,16.9449
60.3534,17.3976
60.3987,16.8354
60.4429,14.9872
60.5504,8.11108
60.5833,6.45892
60.6132,5.36488
60.6408,4.68852
60.6685,4.29712
60.7016,4.13783
60.7311,4.22875
60.7678,4.61255
60.8046,5.32154
60.8368,6.30598
60.866,7.6475
60.8909,9.29755
60.9158,11.6258
60.9376,14.4302
60.9593,18.182
60.9833,23.7152
61.0073,31.049
61.0327,41.0731
61.0638,56.8576
61.1024,81.3947
61.1798,135.463
61.216,153.963
61.253,162.421
61.2586,162.634
61.2971,156.548
61.3433,135.133
61.4231,88.0605
61.459,72.3785
61.4838,64.8819
61.5195,58.2725
61.5877,52.8244
61.6432,47.3613
61.6927,38.9665
61.7804,21.1419
61.8144,15.4919
61.8433,11.7157
61.8673,9.27521
61.8941,7.224
61.9182,5.8786
61.9457,4.7829
61.9732,4.0316
62.0063,3.43522
62.0387,3.0644
62.0775,2.79277
62.1163,2.6551
62.1422,2.63236
62.181,2.7277
62.2156,3.00476
62.2444,3.44876
62.2697,4.06206
62.2949,4.9483
62.3204,6.17989
62.351,8.14935
62.387,11.1584
62.4724,19.4447
62.5113,22.1145
62.5485,23.0476
62.5812,22.3419
62.6156,20.2186
62.6735,14.7709
62.7249,9.86971
62.7581,7.31793
62.7859,5.68373
62.8103,4.60226
62.8355,3.78862
62.8608,3.22595
62.8896,2.814
62.9262,2.53328
62.9656,2.41748
62.9787,2.40678
63.0311,2.45917
63.0835,2.64553
63.1229,2.90034
63.165,3.35672
63.2012,3.99883
63.2302,4.7606
63.2628,5.97094
63.2954,7.63157
63.3334,10.1678
63.4374,18.6139
63.4818,21.1551
63.5244,22.1149
63.5302,22.1302
63.6345,20.6737
63.6606,21.3042
63.6867,23.3141
63.7052,25.9372
63.7268,30.6717
63.7483,37.6786
63.7699,47.4791
63.7928,61.504
63.8152,79.3609
63.8414,105.622
63.8758,148.341
63.9625,271.114
64.002,310.12
64.039,323.253
64.0393,323.253
64.076,310.478
64.1155,272.183
64.2112,143.468
64.2427,110.763
64.2685,91.9953
64.2838,84.56
64.3042,78.94
64.3144,77.9254
64.3348,79.2923
64.3598,86.5437
64.3931,103.792
64.48,160.926
64.5169,174.921
64.5372,177.146
64.5701,171.676
64.6061,154.17
64.6733,104.429
64.7167,73.5718
64.7453,57.77
64.7679,48.6759
64.7864,43.5865
64.8059,40.6164
64.8181,40.055
64.8352,41.002
64.8548,44.6824
64.8753,51.7266
64.8966,62.896
64.9207,80.5562
64.9474,106.967
64.9772,144.799
65.02,212.094
65.0905,327.812
65.1292,370.356
65.1639,383.591
65.2001,369.131
65.2362,329.42
65.3047,218.237
65.3505,146.909
65.3779,112.692
65.4035,87.7491
65.4249,72.2602
65.4469,61.0815
65.4689,54.2909
65.4864,51.6898
65.4952,51.2447
65.5166,52.2951
65.545,57.7314
65.5823,70.0103
65.6627,102.274
65.7049,112.898
65.7303,114.802
65.7645,111.351
65.8,101.152
65.8561,76.5921
65.913,50.8659
65.9448,39.4561
65.9724,32.0998
65.9959,27.879
66.0193,25.5438
66.0369,25.021
66.0545,25.5352
66.0771,27.6811
66.1053,32.6074
66.1391,41.4508
66.1973,61.4154
66.2486,78.248
66.2858,85.8752
66.3136,87.6613
66.346,85.0814
66.3807,77.3772
66.4492,53.9317
66.4919,39.9796
66.521,32.9144
66.5448,29.2834
66.5678,27.895
66.5697,27.8828
66.5909,28.8692
66.6093,31.4831
66.6323,37.1909
66.6553,45.7062
66.6829,59.5899
66.7197,83.4761
66.7946,138.252
66.8347,159.317
66.8707,166.655
66.8737,166.686
66.91,159.951
66.9501,139.237
67.0508,65.1333
67.0802,47.2013
67.1057,34.7218
67.1287,25.8554
67.1492,19.7233
67.1696,15.0103
67.1886,11.702
67.2065,9.32485
67.2244,7.52783
67.2423,6.18184
67.2638,5.01152
67.2852,4.18943
67.3113,3.50631
67.3406,2.99744
67.3816,2.54537
67.4286,2.22045
67.4872,1.9554
67.5602,1.74092
67.6696,1.55539
67.7912,1.47553
67.8156,1.47347
67.8966,1.504
67.9828,1.62393
68.0345,1.77522
68.0775,1.99361
68.1111,2.2698
68.1419,2.66147
68.1689,3.17102
68.1958,3.90622
68.2189,4.77901
68.2451,6.1149
68.2714,7.91755
68.3004,10.5103
68.3337,14.3042
68.3872,21.8687
68.4472,30.4422
68.4896,34.5458
68.5253,35.7174
68.5607,34.553
68.602,30.6174
68.7135,14.9772
68.7467,11.2002
68.7776,8.48278
68.8045,6.70223
68.8315,5.40589
68.8584,4.50307
68.889,3.84077
68.9158,3.49226
68.9534,3.25183
68.9732,3.20965
69.0127,3.25355
69.0621,3.51488
69.1099,4.01879
69.1462,4.65539
69.1779,5.50995
69.2051,6.58763
69.2323,8.13928
69.2571,10.1396
69.2803,12.683
69.3036,16.0563
69.3297,21.0672
69.3576,28.0999
69.3895,38.4787
69.4283,54.4293
69.4885,84.5534
69.7191,203.73
69.7725,222.025
69.7983,224.494
69.8394,216.637
69.8832,192.109
69.9437,139.936
70.0023,87.4272
70.0377,61.4374
70.066,45.013
70.0891,34.4451
70.1123,26.2077
70.1337,20.3746
70.1551,15.943
70.1765,12.6274
70.1979,10.1723
70.2222,8.15796
70.2463,6.73787
70.2745,5.57645
70.3066,4.66947
70.3453,3.93629
70.3903,3.36123
70.4547,2.82711
70.519,2.48926
70.5867,2.27128
70.6705,2.15279
70.6915,2.14919
70.7535,2.21965
70.7945,2.37286
70.8253,2.59279
70.8561,2.96957
70.8808,3.45408
70.902,4.05844
70.9232,4.90407
70.9444,6.06763
70.9655,7.6371
70.9888,9.94491
71.0121,12.9804
71.0392,17.5619
71.0708,24.4359
71.1107,35.3306
71.2494,79.5773
71.323,97.1273
71.3787,105.188
71.4132,106.891
71.4656,103.008
71.5176,91.5497
71.5914,71.0496
71.6303,64.134
71.659,62.417
71.6904,63.9553
71.7503,73.5867
71.8061,82.2201
71.8326,83.5079
71.8701,80.8871
71.9096,72.7008
72.018,38.8735
72.0513,30.7298
72.0798,25.7275
72.1031,23.0068
72.1309,21.1645
72.1556,20.5344
72.171,20.4812
72.2525,21.325
72.297,20.608
72.3377,18.6349
72.3964,14.202
72.4634,8.80809
72.4998,6.42011
72.5299,4.8696
72.555,3.86216
72.582,3.03278
72.6077,2.44848
72.637,1.96881
72.6627,1.671
72.6976,1.39104
72.7314,1.20977
72.7719,1.06129
72.8394,0.902357
72.9321,0.76811
73.0478,0.662653
73.2022,0.576096
73.3959,0.514812
73.5897,0.48617
73.7188,0.481702
73.9323,0.502002
74.0924,0.549509
74.222,0.625067
74.3172,0.721585
74.3839,0.829532
74.4411,0.975046
74.4857,1.15623
74.5208,1.37757
74.5515,1.66902
74.5778,2.03215
74.6031,2.52648
74.6275,3.18677
74.6519,4.08654
74.6763,5.28977
74.6999,6.80484
74.7266,8.98958
74.7586,12.3207
74.8028,18.0761
74.8867,29.9798
74.9278,34.0431
74.9657,35.5206
74.9692,35.5312
75.005,34.4055
75.0452,30.7617
75.115,21.1714
75.1672,14.0808
75.2004,10.449
75.2297,7.94578
75.2564,6.2423
75.28,5.15106
75.3044,4.39235
75.3227,4.04506
75.3471,3.8561
75.3711,3.96782
75.3949,4.37587
75.4186,5.1042
75.4423,6.18827
75.4677,7.79126
75.4976,10.305
75.5302,13.8361
75.5791,20.4449
75.6824,35.5282
75.7443,42.1059
75.8107,46.2093
75.869,47.3908
75.9249,45.6451
75.9776,40.6394
76.0396,31.1395
76.1178,17.8873
76.1548,12.7247
76.184,9.46488
76.2101,7.17648
76.2352,5.48441
76.2571,4.35444
76.279,3.49666
76.3009,2.85951
76.3232,2.39114
76.3454,2.06194
76.3676,1.84095
76.3899,1.70644
76.4176,1.64042
76.4232,1.63984
76.4454,1.67921
76.4677,1.78785
76.4965,2.0417
76.5251,2.43789
76.5538,2.99046
76.5927,3.98637
76.7013,7.42878
76.7454,8.34815
76.7787,8.57264
76.8143,8.30942
76.8514,7.54096
76.9185,5.42053
76.975,3.6387
77.0103,2.76116
77.042,2.16857
77.0713,1.77294
77.0973,1.52683
77.1234,1.36025
77.1581,1.23001
77.1929,1.17176
77.2276,1.15924
77.2968,1.21196
77.3828,1.3658
77.4687,1.61502
77.5375,1.91515
77.5913,2.25211
77.6343,2.62955
77.6772,3.17043
77.7095,3.75505
77.737,4.44814
77.7645,5.41079
77.792,6.76791
77.8161,8.41222
77.8402,10.6348
77.8634,13.4874
77.8892,17.684
77.9137,22.8783
77.9408,30.1949
77.973,41.2195
78.0169,59.9447
78.105,101.776
78.1504,117.233
78.1944,123.339
78.2006,123.418
78.246,118.641
78.3458,92.6732
78.3905,84.84
78.4391,82.2448
78.5086,83.3363
78.5618,80.2681
78.6051,72.408
78.6638,55.4386
78.7355,32.6814
78.772,23.1918
78.8,17.4114
78.8255,13.2827
78.851,10.1314
78.8728,8.0971
78.8947,6.56931
78.9171,5.42245
78.9425,4.52062
78.9636,4.00898
78.9889,3.60582
79.0143,3.37295
79.0481,3.26017
79.0869,3.36706
79.1161,3.62594
79.1452,4.08359
79.1744,4.81298
79.1987,5.70204
79.2238,6.97525
79.2508,8.85115
79.2779,11.3658
79.3083,15.0776
79.3421,20.3659
79.3877,29.2177
79.4705,46.412
79.5151,52.7685
79.5555,54.8583
79.5922,53.3397
79.6412,47.0145
79.7324,30.7784
79.7704,25.9395
79.8017,23.7941
79.8254,23.3839
79.8574,24.4277
79.8894,27.0225
79.9991,39.8013
80.0502,42.9156
80.0733,43.2156
80.141,41.2556
80.2013,39.2224
80.2214,39.0916
80.2814,40.6356
80.3584,43.3848
80.3646,43.4203
80.4111,42.0533
80.4515,38.3372
80.5046,30.6634
80.5834,17.9763
80.6196,13.1926
80.6495,10.0726
80.6761,7.94984
80.7027,6.40397
80.7226,5.59003
80.7418,5.06055
80.761,4.75994
80.7738,4.67835
80.7994,4.7828
80.8249,5.22414
80.855,6.14373
80.891,7.75856
80.9489,11.1685
81.0235,15.6273
81.0881,18.2388
81.1661,20.9317
81.2021,23.3119
81.2392,27.3266
81.279,33.6211
81.389,55.4087
81.4315,60.3639
81.4557,61.2006
81.4978,58.8396
81.5362,52.9109
81.649,27.7005
81.6848,21.4375
81.7086,18.4601
81.7325,16.5971
81.7524,15.9685
81.7604,15.9647
81.7824,16.725
81.8008,18.2568
81.8252,21.62
81.8497,26.5207
81.8812,35.0254
81.9234,49.6507
82.0064,81.3038
82.0493,92.5308
82.0887,96.1367
82.1254,92.9051
82.1658,82.7535
82.2327,57.3871
82.2848,37.5227
82.3195,26.6696
82.3484,19.5364
82.3715,15.0734
82.3946,11.6159
82.4177,9.0327
82.437,7.44469
82.4563,6.28542
82.4758,5.47528
82.4994,4.90702
82.523,4.71365
82.5442,4.82196
82.5654,5.18225
82.5866,5.79397
82.6149,7.01638
82.6463,8.95163
82.682,11.9092
82.7288,16.8395
82.8183,27.0608
82.8607,30.3311
82.9027,31.5027
82.9471,30.2969
82.9974,26.6134
83.0649,20.7819
83.1034,18.6136
83.1333,18.0101
83.1669,18.5943
83.2043,20.6793
83.3132,29.8493
83.3586,31.6553
83.3678,31.7137
83.409,30.6242
83.4591,26.7336
83.5527,16.9522
83.5839,14.5162
83.6106,13.187
83.6366,12.7193
83.6625,13.1813
83.6884,14.6824
83.7143,17.3224
83.7429,21.6365
83.7714,27.4669
83.8094,37.4542
83.9156,71.1107
83.9616,81.6039
84.0036,85.322
84.0065,85.3381
84.0488,82.0285
84.0916,72.8282
84.2073,37.6804
84.2406,29.7286
84.2683,24.811
84.2961,21.6271
84.3183,20.3953
84.3294,20.2317
84.3519,20.8565
84.3745,22.8051
84.3971,26.1262
84.4242,31.9769
84.4559,41.3809
84.4973,57.4786
84.6021,104.615
84.6458,117.687
84.6848,121.661
84.7257,117.016
84.7664,104.483
84.8395,71.191
84.8938,46.7164
84.9277,34.1789
84.9594,24.8831
84.9865,18.7149
85.0114,14.357
85.037,10.9577
85.062,8.49584
85.0871,6.69345
85.1122,5.38497
85.1372,4.43627
85.1655,3.66983
85.1937,3.12288
85.2314,2.6122
85.2785,2.1833
85.3332,1.84772
85.4086,1.53817
85.499,1.29577
85.6069,1.11084
85.7366,0.97815
85.8922,0.904378
85.9441,0.898377
86.0377,0.919438
86.0897,0.962825
86.1418,1.05804
86.1808,1.19771
86.2136,1.39607
86.2432,1.67483
86.2679,2.00819
86.2926,2.4613
86.3174,3.06139
86.347,4.00989
86.378,5.29334
86.4196,7.48035
86.5226,13.7906
86.5663,15.6805
86.6082,16.381
86.6103,16.383
86.6516,15.7792
86.6912,14.192
86.7708,9.46482
86.8233,6.47675
86.8597,4.84593
86.8922,3.74813
86.9183,3.10016
86.9443,2.63112
86.9741,2.27656
87.0052,2.07488
87.0362,2.00962
87.0672,2.06267
87.0982,2.23389
87.1293,2.54065
87.1607,3.02265
87.1922,3.71934
87.2236,4.67262
87.2595,6.11002
87.3074,8.57358
87.4183,15.0362
87.4813,17.5588
87.559,19.7789
87.5972,21.9134
87.6293,25.297
87.6554,29.6947
87.6811,35.9037
87.7067,44.3435
87.7361,57.0906
87.7712,76.6518
87.8261,114.897
87.8951,164.412
87.9403,187.071
87.9836,194.883
88.023,188.4
88.0651,168.67
88.1337,120.073
88.1906,78.8775
88.2272,56.8761
88.2584,41.9058
88.2865,31.3704
88.3122,23.9161
88.3369,18.4382
88.3592,14.6863
88.3814,11.8194
88.4073,9.34387
88.4332,7.56677
88.4576,6.35625
88.4868,5.31526
88.5219,4.46145
88.557,3.88178
88.6037,3.368
88.6587,2.99549
88.7183,2.77883
88.7581,2.72736
88.7978,2.76026
88.8437,2.94443
88.8781,3.23996
88.9124,3.74417
88.9411,4.39229
88.9698,5.32089
88.9986,6.61807
89.0306,8.56655
89.0625,11.1337
89.1002,15.0091
89.149,21.251
89.2401,35.2198
89.3283,50.8547
89.3829,63.3245
89.5271,105.061
89.5732,112.222
89.5918,112.885
89.632,109.367
89.6799,96.8999
89.7502,68.7129
89.8094,44.5813
89.8468,31.9881
89.879,23.3831
89.906,17.7468
89.9329,13.3933
89.9588,10.2421
89.9837,7.97204
90.0086,6.29179
90.0334,5.06
90.0606,4.09169
90.0887,3.38053
90.1214,2.80112
90.1542,2.3959
90.201,1.99808
90.2534,1.69725
90.3189,1.43875
90.4106,1.19724
90.5229,1.00725
90.6633,0.859686
90.8037,0.769442
90.9572,0.711045
91.1519,0.677454
91.2492,0.673839
91.4367,0.688715
91.6242,0.733046
91.8477,0.833194
92.0339,0.973532
92.1829,1.14484
92.3133,1.36364
92.425,1.63294
92.5311,2.00302
92.6224,2.46954
92.6876,2.94229
92.7453,3.52209
92.7919,4.17172
92.8384,5.1029
92.8757,6.19862
92.9092,7.63768
92.939,9.49103
92.965,11.7784
92.9911,14.9538
93.0157,19.0602
93.0392,24.3082
93.0626,31.2031
93.0872,40.5972
93.114,53.8639
93.1409,70.7241
93.1759,98.5386
93.2198,142.146
93.3211,254.32
93.3643,287.956
93.4088,301.781
93.4117,301.838
93.4537,290.932
93.4969,259.509
93.5699,180.392
93.6303,115.057
93.6653,84.0667
93.6951,62.8236
93.723,47.1205
93.7491,35.7757
93.7751,27.1503
93.7973,21.5772
93.8208,17.084
93.8442,13.725
93.8677,11.229
93.8951,9.11732
93.9241,7.54021
93.9576,6.28618
93.9968,5.30966
94.0415,4.59086
94.075,4.24282
94.1153,4.00781
94.1332,3.97088
94.1691,4.0502
94.205,4.40027
94.2319,4.91018
94.2621,5.82432
94.2919,7.17679
94.3216,9.08066
94.3514,11.6171
94.3866,15.4781
94.4352,22.1325
94.5206,34.6711
94.5692,39.4907
94.6098,40.8722
94.6527,39.3425
94.7003,34.5356
94.8159,17.9556
94.8548,13.4999
94.887,10.7714
94.9083,9.48027
94.9339,8.46776
94.9548,8.06189
94.9671,7.99369
94.9919,8.22497
95.0228,9.16445
95.0577,11.0093
95.1012,14.2786
95.2502,27.9595
95.3394,35.5332
95.3807,40.9774
95.4161,48.0382
95.4548,59.1818
95.4985,76.2378
95.6065,126.274
95.6555,141.315
95.6971,145.648
95.7448,141.158
95.8503,118.259
95.8873,115.378
95.9362,119.779
96.0703,153.189
96.119,157.095
96.1928,149.992
96.2601,141.235
96.2974,139.878
96.4184,147.202
96.4743,142.216
96.5218,128.38
96.5813,101.028
96.6633,58.9599
96.7025,42.1936
96.7358,30.8032
96.7652,22.9442
96.7914,17.5482
96.8176,13.439
96.8404,10.72
96.865,8.53544
96.8895,6.94476
96.9141,5.80822
96.9386,5.0156
96.968,4.40556
96.9975,4.08249
97.0244,3.99645
97.0514,4.09785
97.0851,4.49705
97.1195,5.24839
97.1549,6.42554
97.1904,8.02663
97.2422,11.0242
97.3308,16.6059
97.3819,18.7503
97.4219,19.2916
97.4641,18.6193
97.5081,16.7122
97.5861,11.6548
97.6475,7.7266
97.6847,5.80856
97.7202,4.39049
97.7521,3.44206
97.7804,2.82802
97.8088,2.395
97.8343,2.13394
97.8598,1.97483
97.8949,1.90015
97.9262,1.96605
97.9568,2.15942
97.9875,2.50118
98.0181,3.02195
98.0506,3.80734
98.0848,4.93621
98.126,6.71907
98.1842,9.91137
98.2592,14.2075
98.3092,16.2202
98.3553,16.8814
98.3947,16.3912
98.4415,14.6768
98.5141,10.5947
98.5794,6.87279
98.6213,4.9505
98.6566,3.70025
98.6872,2.87539
98.7179,2.26087
98.7485,1.81737
98.7799,1.49939
98.8116,1.27934
98.8479,1.11414
98.8842,1.009
98.9205,0.941569
98.9931,0.869808
99.0987,0.839938
99.2172,0.865816
99.3188,0.934102
99.42,1.06075
99.4872,1.1991
99.5377,1.35379
99.5882,1.58752
99.6302,1.89063
99.6638,2.2547
99.6933,2.71226
99.7227,3.36009
99.7479,4.12511
99.774,5.18632
99.8005,6.62487
99.827,8.51268
99.8547,11.0634
99.8884,15.0482
99.9279,21.0403
99.9868,32.1411
100.069,48.1115
100.115,54.086
100.16,56.2434
100.2,54.574
100.244,49.1749
100.312,36.5397
100.382,22.8925
100.424,16.3098
100.456,12.2639
100.486,9.31702
100.513,7.30513
100.54,5.77741
100.567,4.65115
100.595,3.78578
100.627,3.12221
100.658,2.68086
100.69,2.39161
100.715,2.23643
100.765,2.06058
100.826,2.00248
100.887,2.06431
100.94,2.21542
100.993,2.4928
101.037,2.88439
101.072,3.3788
101.102,4.01041
101.132,4.92656
101.158,6.04387
101.183,7.58653
101.209,9.69541
101.234,12.4491
101.258,16.007
101.286,21.138
101.313,27.6952
101.346,37.6164
101.389,53.9586
101.5,103.724
101.548,119.383
101.593,125.694
101.6,125.794
101.641,121.702
101.69,107.331
101.772,71.5175
101.827,47.6715
101.865,34.222
101.898,25.1239
101.926,19.1438
101.952,14.7948
101.978,11.4873
102.004,9.03362
102.03,7.21454
102.057,5.93477
102.084,5.07786
102.111,4.54424
102.145,4.23486
102.158,4.20791
102.185,4.31073
102.212,4.6256
102.241,5.20973
102.271,6.13523
102.309,7.76621
102.355,10.3992
102.473,18.6798
102.527,21.2276
102.575,22.0314
102.633,21.17
102.689,19.5867
102.721,19.169
102.754,19.782
102.783,21.8109
102.809,25.1749
102.833,30.0315
102.857,36.9081
102.884,47.4811
102.912,62.05
102.943,82.3017
102.98,113.695
103.052,187.019
103.117,250.18
103.162,278.522
103.2,286.528
103.24,277.277
103.287,246.825
103.357,176.454
103.42,112.259
103.459,79.5602
103.489,59.3328
103.518,44.0829
103.544,33.3053
103.57,25.0561
103.593,19.4874
103.615,15.4887
103.637,12.4351
103.662,9.79732
103.687,7.90325
103.715,6.44676
103.744,5.37837
103.778,4.50624
103.813,3.91494
103.859,3.38525
103.924,2.92167
103.985,2.66148
104.076,2.47794
104.107,2.4663
104.16,2.51683
104.205,2.66222
104.251,2.97081
104.285,3.38813
104.313,3.93367
104.342,4.77106
104.366,5.73143
104.389,7.03363
104.413,8.77218
104.436,11.0522
104.459,13.9832
104.487,18.3349
104.517,24.59
104.554,34.1512
104.606,51.0932
104.69,80.2216
104.736,91.9089
104.783,97.0505
104.79,97.1481
104.833,93.7386
104.88,83.0676
104.962,55.1451
105.02,36.2455
105.056,26.3953
105.089,19.5168
105.118,14.797
105.143,11.6279
105.169,9.17311
105.194,7.41956
105.219,6.15333
105.244,5.26249
105.274,4.5591
105.305,4.13862
105.337,3.90066
105.377,3.81596
105.428,3.93244
105.473,4.2133
105.528,4.82956
105.572,5.64661
105.611,6.77613
105.639,7.96607
105.666,9.6387
105.691,11.7654
105.715,14.4674
105.738,18.0736
105.762,22.8383
105.786,29.05
105.813,38.2908
105.84,50.6561
105.868,66.328
105.901,89.4408
105.944,127.563
106.078,265.748
106.136,306.298
106.188,321.119
106.2,321.505
106.261,308.332
106.341,264.616
106.488,154.122
106.564,98.5257
106.613,69.1392
106.65,50.8559
106.682,38.0965
106.713,28.6807
106.741,22.0755
106.769,16.9047
106.797,13.2031
106.825,10.5041
106.853,8.56566
106.881,7.18879
106.914,6.07255
106.945,5.36416
106.984,4.83712
107.022,4.56453
107.047,4.50288
107.085,4.59826
107.119,4.91552
107.151,5.48593
107.183,6.42694
107.209,7.59608
107.235,9.22283
107.262,11.4219
107.29,14.5651
107.32,18.8594
107.356,25.6481
107.399,35.6408
107.522,70.2505
107.574,80.2959
107.62,83.2971
107.667,79.9334
107.711,71.5272
107.791,49.3791
107.854,31.8608
107.891,23.5283
107.921,17.8652
107.952,13.402
107.98,10.2949
108.006,8.10019
108.032,6.43181
108.057,5.18326
108.087,4.14903
108.113,3.49892
108.142,2.96369
108.179,2.50674
108.223,2.15192
108.282,1.86058
108.363,1.62858
108.473,1.46301
108.583,1.39403
108.62,1.38676
108.737,1.40969
108.854,1.50573
108.971,1.69654
109.059,1.93546
109.128,2.22255
109.182,2.55021
109.228,2.97853
109.268,3.53568
109.301,4.22806
109.332,5.17142
109.358,6.31666
109.385,7.89832
109.412,10.0675
109.438,13.0052
109.464,16.7668
109.49,21.8193
109.519,28.9763
109.552,39.239
109.589,53.888
109.643,80.0682
109.759,142.404
109.826,169.341
109.894,184.027
109.954,187.649
110.03,181.415
110.099,163.515
110.171,131.647
110.292,67.1448
110.338,46.7526
110.373,34.5894
110.404,25.8481
110.432,19.8415
110.46,15.2267
110.488,11.7713
110.515,9.24232
110.54,7.60013
110.565,6.39465
110.595,5.34532
110.626,4.6635
110.657,4.24579
110.694,4.01032
110.706,3.98699
110.741,4.07185
110.777,4.41172
110.808,4.96625
110.84,5.81064
110.875,7.1691
110.915,9.24731
110.962,12.5365
111.128,26.5715
111.231,34.3306
111.274,39.4994
111.313,46.9948
111.353,58.2371
111.392,73.1266
111.449,101.687
111.537,148.378
111.589,166.542
111.629,171.14
111.673,165.438
111.717,149.405
111.788,110.411
111.862,67.9433
111.905,47.9527
111.938,35.6107
111.967,26.99
111.997,20.3177
112.025,15.498
112.049,12.3572
112.077,9.61177
112.105,7.62954
112.133,6.21243
112.161,5.20924
112.191,4.46138
112.22,3.95213
112.256,3.57356
112.298,3.39119
112.304,3.38667
112.339,3.47858
112.376,3.80933
112.413,4.42762
112.445,5.25578
112.484,6.63442
112.532,8.92797
112.653,15.8247
112.707,17.9087
112.752,18.4934
112.803,17.7686
112.868,15.2079
112.948,11.6138
112.991,10.392
113.024,10.0099
113.065,10.2736
113.115,11.4884
113.222,15.0567
113.278,15.888
113.287,15.9055
113.346,15.2557
113.445,12.7888
113.479,12.4045
113.51,12.6407
113.542,13.6598
113.574,15.6584
113.606,18.8296
113.644,24.046
113.693,32.9574
113.808,57.6322
113.859,65.2129
113.908,68.027
113.91,68.0305
113.953,65.9359
114.005,58.74
114.087,41.048
114.152,27.2546
114.196,19.5617
114.234,14.5045
114.265,11.2807
114.296,8.83218
114.325,7.1138
114.357,5.79143
114.383,5.01487
114.415,4.38373
114.446,4.00687
114.478,3.83217
114.488,3.81366
114.521,3.87601
114.553,4.12825
114.585,4.60664
114.618,5.37605
114.65,6.53043
114.682,8.16841
114.714,10.4199
114.745,13.4268
114.778,17.4405
114.819,23.827
114.872,34.2939
114.971,55.5959
115.026,64.0808
115.076,67.193
115.08,67.2141
115.128,64.8161
115.181,57.1726
115.318,28.8956
115.358,22.3169
115.395,17.9307
115.427,15.3353
115.451,14.1844
115.475,13.6838
115.483,13.6541
115.511,14.0527
115.545,15.411
115.595,18.8661
115.702,27.5767
115.757,30.1045
115.784,30.4163
115.834,29.3357
115.918,24.3722
115.973,21.3844
116.005,20.6953
116.031,21.0018
116.065,22.9114
116.094,25.9915
116.129,31.7292
116.17,40.8666
116.241,61.2112
116.307,79.9832
116.359,89.7795
116.399,92.1861
116.442,89.3513
116.486,81.2391
116.556,61.2076
116.635,37.1238
116.677,26.5718
116.713,19.3739
116.743,14.6735
116.773,11.0373
116.8,8.54275
116.826,6.74452
116.851,5.41612
116.88,4.26996
116.909,3.44895
116.938,2.86141
116.968,2.41606
117.008,2.01987
117.048,1.75394
117.102,1.52153
117.155,1.38031
117.219,1.30885
117.225,1.30807
117.263,1.32835
117.306,1.41491
117.351,1.59325
117.398,1.88202
117.465,2.46509
117.559,3.37254
117.615,3.73756
117.657,3.82805
117.705,3.71862
117.761,3.33158
117.892,2.06414
117.936,1.74731
117.966,1.61298
117.998,1.55479
118.025,1.59064
118.047,1.68681
118.074,1.91008
118.101,2.27448
118.128,2.81479
118.154,3.57081
118.183,4.66701
118.212,6.10898
118.245,8.18204
118.285,11.4114
118.352,18.003
118.429,25.4898
118.48,28.6804
118.52,29.52
118.568,28.3531
118.619,24.8812
118.755,11.559
118.797,8.24413
118.829,6.2039
118.857,4.83437
118.885,3.78189
118.913,3.01707
118.941,2.45325
118.965,2.11316
118.995,1.82749
119.018,1.69658
119.048,1.5998
119.078,1.56961
119.123,1.61675
119.168,1.75918
119.214,2.01256
119.251,2.35196
119.284,2.78561
119.316,3.41812
119.343,4.16265
119.371,5.17893
119.399,6.63849
119.427,8.54196
119.454,11.0463
119.485,14.6766
119.515,19.2731
119.551,26.014
119.598,37.388
119.745,78.7598
119.81,91.3808
119.878,97.1803
119.907,97.6457
120.012,93.7416
120.11,84.4249
120.184,71.181
120.287,45.4166
120.35,29.9906
120.392,21.3965
120.428,15.5991
120.457,11.9549
120.485,9.09551
120.514,6.91793
120.538,5.50455
120.565,4.34605
120.593,3.47567
120.617,2.92602
120.645,2.47609
120.68,2.10101
120.722,1.82599
120.777,1.62511
120.855,1.4979
120.933,1.45951
121.041,1.50066
121.149,1.6495
121.236,1.88003
121.297,2.14152
121.35,2.49788
121.396,2.97711
121.434,3.58965
121.468,4.41352
121.496,5.36101
121.524,6.65565
121.552,8.41068
121.58,10.7586
121.61,14.1333
121.64,18.5858
121.673,24.8947
121.711,33.9935
121.761,48.9446
121.874,86.6418
121.924,98.8191
121.974,104.11
121.982,104.211
122.03,100.478
122.077,90.6069
122.205,52.8866
122.246,44.189
122.28,39.9216
122.308,38.7612
122.336,39.7906
122.364,43.0963
122.393,48.6625
122.437,61.0168
122.567,107.556
122.621,120.137
122.66,123.14
122.708,119.086
122.765,104.945
122.876,68.6001
122.919,58.9045
122.955,54.8002
122.973,54.3149
123.002,55.7351
123.04,61.5763
123.088,73.8212
123.191,106.077
123.242,116.314
123.277,118.462
123.325,114.197
123.38,100.408
123.524,46.7969
123.569,32.9299
123.606,24.1946
123.637,18.2704
123.666,14.0907
123.695,10.8941
123.724,8.50085
123.751,6.78874
123.78,5.50836
123.808,4.57888
123.842,3.79328
123.882,3.18129
123.925,2.74969
123.97,2.45422
124.041,2.16875
124.131,2.00391
124.176,1.98203
124.237,2.01989
124.289,2.13041
124.34,2.35328
124.383,2.6805
124.417,3.09067
124.452,3.69953
124.482,4.45845
124.511,5.47125
124.54,6.83545
124.569,8.63794
124.602,11.3461
124.638,15.1819
124.677,20.4423
124.729,29.1465
124.845,50.8967
124.898,57.7966
124.95,60.1923
124.996,58.2677
125.046,52.3449
125.127,37.7074
125.199,24.5285
125.242,18.2192
125.274,14.4062
125.306,11.4726
125.334,9.60783
125.365,8.26622
125.387,7.68994
125.41,7.46216
125.441,7.6787
125.468,8.38117
125.503,9.92391
125.538,12.1836
125.582,16.0413
125.719,30.6827
125.77,34.462
125.821,35.8506
125.824,35.8513
125.87,34.7268
125.934,30.3306
126.013,23.7695
126.054,21.5462
126.082,21.0339
126.11,21.4891
126.137,22.9761
126.173,26.6394
126.21,32.0901
126.275,44.8433
126.354,60.4817
126.404,66.5249
126.438,67.8259
126.483,65.6427
126.53,59.1845
126.6,44.2408
126.678,26.9477
126.719,19.3744
126.754,14.2027
126.785,10.5905
126.813,8.09042
126.841,6.18371
126.863,4.9966
126.889,4.00185
126.914,3.28384
126.942,2.74697
126.971,2.39964
126.996,2.2423
127.03,2.19348
127.063,2.29946
127.099,2.56957
127.143,3.09165
127.196,3.98705
127.344,7.05107
127.42,8.09365
127.529,9.14949
127.572,10.0923
127.61,11.6465
127.645,13.8329
127.681,17.1191
127.724,22.4312
127.777,30.8574
127.88,49.1318
127.933,55.8061
127.983,58.52
127.989,58.5563
128.04,56.3089
128.092,49.9351
128.189,32.447
128.251,21.6773
128.292,15.9459
128.329,11.6965
128.362,8.86876
128.392,6.80937
128.421,5.32903
128.45,4.21006
128.478,3.37616
128.51,2.71572
128.543,2.21126
128.577,1.8575
128.616,1.57143
128.661,1.35021
128.709,1.19081
128.781,1.03109
128.853,0.929738
128.962,0.843826
129.038,0.822454
129.114,0.844079
129.166,0.902438
129.204,0.986118
129.25,1.15059
129.289,1.37261
129.327,1.69449
129.367,2.14201
129.413,2.83359
129.476,4.04226
129.57,5.99337
129.628,6.85328
129.68,7.14886
129.683,7.14943
129.732,6.91289
129.788,6.17094
129.93,3.4906
129.978,2.80201
130.017,2.4132
130.051,2.20067
130.085,2.10157
130.102,2.09439
130.135,2.16773
130.168,2.3628
130.201,2.70389
130.234,3.23009
130.267,3.99705
130.3,5.07605
130.333,6.57314
130.368,8.68846
130.407,11.7231
130.45,16.0774
130.505,23.0747
130.607,36.9375
130.663,42.651
130.718,45.1019
130.73,45.1786
130.789,43.3131
130.912,34.5759
130.945,33.5329
130.961,33.5277
131.002,35.3112
131.036,38.971
131.081,46.892
131.15,63.9893
131.233,84.5886
131.284,92.1806
131.319,93.7158
131.371,89.9108
131.422,79.9387
131.519,52.0425
131.581,34.7309
131.622,25.7571
131.658,19.4785
131.688,15.4431
131.719,12.4907
131.744,10.755
131.772,9.59648
131.794,9.14369
131.806,9.06283
131.828,9.17224
131.856,9.79818
131.891,11.2691
131.934,13.8921
132.007,19.8391
132.082,25.9749
132.139,28.9791
132.183,29.7503
132.24,28.605
132.331,23.5281
132.388,20.5235
132.433,19.3473
132.445,19.2941
132.479,19.7738
132.521,21.6758
132.577,25.8899
132.669,33.7141
132.724,36.2769
132.746,36.5187
132.799,35.045
132.854,30.7108
132.996,15.0219
133.036,11.3202
133.074,8.63778
133.107,6.95609
133.136,5.97004
133.161,5.48134
133.185,5.32258
133.214,5.56063
133.242,6.27744
133.266,7.27214
133.295,8.98958
133.323,11.3312
133.357,15.0577
133.398,20.6966
133.452,30.0896
133.551,48.7637
133.606,56.1607
133.657,58.7817
133.66,58.7918
133.708,56.7595
133.758,50.5994
133.844,34.9269
133.908,23.4387
133.952,16.8608
133.989,12.5619
134.023,9.63755
134.053,7.71439
134.084,6.26712
134.115,5.35103
134.141,4.86334
134.175,4.55742
134.193,4.53019
134.227,4.70136
134.262,5.17475
134.296,5.99956
134.327,7.09435
134.356,8.5779
134.385,10.6593
134.414,13.5075
134.444,17.3424
134.474,22.651
134.506,29.788
134.54,39.8365
134.577,53.8009
134.622,74.4858
134.759,149.069
134.815,170.699
134.869,179.109
134.874,179.157
134.925,172.575
134.981,153.645
135.097,102.596
135.145,87.9286
135.18,82.3284
135.208,80.7784
135.245,82.37
135.311,92.3657
135.396,106.152
135.439,108.539
135.488,105.307
135.539,95.2643
135.613,72.79
135.699,44.9031
135.748,32.1842
135.785,24.442
135.819,19.1612
135.846,16.1037
135.873,13.8641
135.897,12.5864
135.92,11.9342
135.932,11.84
135.956,12.1221
135.983,13.2076
136.009,15.1783
136.036,18.1385
136.062,22.2131
136.094,28.7526
136.126,37.2616
136.166,51.0244
136.22,73.9836
136.33,125.701
136.386,144.201
136.438,150.589
136.44,150.6
136.487,145.657
136.537,131.075
136.626,90.9499
136.693,61.995
136.729,49.3077
136.765,39.9446
136.794,34.7485
136.816,32.1337
136.848,30.0778
136.865,29.7881
136.897,30.4099
136.959,34.4769
137.05,41.2158
137.107,42.6936
137.169,41.119
137.287,34.4232
137.336,33.2999
137.379,34.0308
137.446,38.0986
137.544,45.6359
137.6,47.2284
137.651,45.6312
137.707,40.6505
137.795,28.709
137.869,18.5659
137.914,13.6035
137.953,10.2726
137.985,8.13688
138.017,6.52709
138.049,5.37097
138.081,4.59485
138.114,4.13555
138.14,3.96397
138.156,3.94376
138.187,4.08588
138.218,4.49175
138.25,5.21373
138.281,6.33773
138.308,7.74416
138.336,9.64835
138.363,12.1624
138.394,15.8594
138.426,20.7941
138.464,28.3913
138.51,40.2045
138.584,63.1199
138.668,89.2602
138.723,100.377
138.77,103.544
138.819,99.9017
138.876,87.9865
138.976,56.4472
139.039,37.31
139.082,26.986
139.12,19.7237
139.153,14.7489
139.183,11.3199
139.212,8.84661
139.24,7.03649
139.267,5.69605
139.298,4.63556
139.329,3.91896
139.366,3.3984
139.402,3.16735
139.414,3.14475
139.449,3.22378
139.484,3.54026
139.518,4.12698
139.548,4.91583
139.578,6.01561
139.613,7.71958
139.652,10.2822
139.697,14.1702
139.757,20.6234
139.853,31.5119
139.915,36.4763
139.973,38.2693
139.981,38.2892
140.048,36.7489
140.133,33.7521
140.159,33.5536
140.204,34.8225
140.251,38.6392
140.313,47.2319
140.42,64.3398
140.476,69.0589
140.498,69.4739
140.55,66.9375
140.605,59.4931
140.741,33.1442
140.787,26.2502
140.825,22.5893
140.857,21.092
140.87,20.9419
140.891,21.2991
140.918,22.9118
140.945,25.8864
140.977,31.1628
141.013,39.6439
141.055,52.7867
141.109,73.5459
141.255,138.968
141.322,159.417
141.38,166.764
141.387,166.933
141.45,161.18
141.521,141.27
141.622,98.8789
141.71,61.2488
141.76,43.3491
141.798,32.2985
141.834,24.047
141.867,17.9663
141.896,13.8418
141.925,10.6413
141.954,8.20699
141.98,6.58608
142.009,5.19186
142.038,4.17324
142.067,3.43268
142.1,2.81917
142.14,2.33455
142.186,1.9561
142.24,1.67255
142.306,1.4397
142.393,1.25397
142.461,1.1941
142.469,1.19343
142.514,1.22488
142.56,1.34004
142.594,1.50569
142.631,1.79823
142.664,2.17391
142.702,2.76846
142.739,3.56049
142.786,4.83105
142.868,7.59532
142.939,9.90305
142.993,11.0578
143.038,11.3848
143.088,10.996
143.142,9.77821
143.232,6.73512
143.299,4.47172
143.345,3.2405
143.382,2.43751
143.415,1.89394
143.448,1.48252
143.481,1.18187
143.514,0.966621
143.546,0.824707
143.586,0.710184
143.633,0.632659
143.681,0.593411
143.77,0.569752
143.794,0.569328
143.893,0.584064
143.991,0.62372
144.09,0.699699
144.155,0.788002
144.21,0.912614
144.249,1.0528
144.289,1.26536
144.325,1.55304
144.356,1.92184
144.388,2.43918
144.418,3.10683
144.447,3.98929
144.477,5.14118
144.51,6.81828
144.544,8.98906
144.583,12.1507
144.635,17.2851
144.749,29.8883
144.805,34.5498
144.86,36.6265
144.871,36.6892
144.918,35.6586
144.977,31.7206
145.116,18.3224
145.158,15.1973
145.201,12.9832
145.239,11.7727
145.29,11.0947
145.327,11.0309
145.392,11.1517
145.462,10.8033
145.524,9.71557
145.605,7.43505
145.691,4.90156
145.741,3.70277
145.778,3.02288
145.81,2.61405
145.838,2.37387
145.87,2.25579
145.876,2.2524
145.907,2.3412
145.934,2.57925
145.961,2.99413
145.988,3.62025
146.015,4.49936
146.042,5.67798
146.072,7.42105
146.106,9.95562
146.144,13.5266
146.191,19.22
146.328,38.5382
146.386,44.2404
146.438,46.1818
146.44,46.1841
146.49,44.576
146.543,39.7222
146.632,27.3419
146.7,17.9661
146.743,13.1242
146.782,9.6352
146.813,7.46583
146.844,5.79782
146.875,4.56102
146.906,3.67771
146.935,3.10717
146.966,2.69924
146.993,2.47932
147.029,2.32156
147.064,2.2744
147.118,2.34394
147.171,2.53651
147.232,2.89197
147.293,3.45876
147.343,4.15687
147.386,5.07512
147.421,6.15726
147.454,7.59557
147.483,9.32896
147.511,11.6681
147.542,15.0688
147.573,19.6765
147.604,25.8175
147.635,33.8356
147.669,45.4439
147.709,62.5303
147.755,87.7796
147.826,135.533
147.918,199.066
147.974,225.737
148.029,235.408
148.03,235.409
148.078,228.265
148.129,206.477
148.208,154.607
148.293,95.7318
148.342,67.5445
148.381,50.0074
148.415,37.7264
148.448,28.84
148.476,22.919
148.505,18.4548
148.533,15.2125
148.561,12.989
148.59,11.6255
148.622,10.9816
148.633,10.9701
148.666,11.5295
148.692,12.6404
148.723,14.7436
148.757,18.2421
148.792,23.0579
148.83,29.9734
148.879,41.2009
149.021,81.1922
149.076,92.4628
149.131,97.3473
149.138,97.4303
149.189,94.2651
149.243,84.251
149.331,59.9432
149.407,38.167
149.453,27.5216
149.491,20.3661
149.527,15.0668
149.56,11.3959
149.589,8.88109
149.62,6.83002
149.648,5.41636
149.677,4.3566
149.71,3.45749
149.743,2.82165
149.782,2.30596
149.816,1.98997
149.862,1.69611
149.919,1.45494
149.983,1.28276
150.0,1.24782
150.0,30.0023
165.592,28.4666
177.142,27.4649
192.07,26.3093
208.855,25.1577
226.528,24.084
243.214,23.1821
266.441,22.0741
293.062,20.9737
316.763,20.1159
344.288,19.2357
371.1,18.4765
400.0,17.7472
441.02,16.8408
479.512,16.1009
522.137,15.3784
566.319,14.7171
608.035,14.1618
666.104,13.4798
732.654,12.8027
791.907,12.2751
860.72,11.7339
927.75,11.2673
1000.0,10.8192
1090.51,10.3294
1176.4,9.91913
1294.1,9.4261
1401.62,9.03234
1531.9,8.61317
1678.94,8.20126
1855.5,7.77434
2000.0,7.4688
2181.02,7.15308
2432.14,6.77484
2664.41,6.47368
2949.28,6.15404
3274.99,5.84093
3517.45,5.63662
3832.21,5.40087
4229.48,5.14172
4598.63,4.93165
5000.0,4.73017
5452.54,4.56216
6080.35,4.35928
6661.04,4.19643
7373.21,4.02223
8220.95,3.8436
9066.94,3.68962
10000.0,3.54182
11326.4,3.40124
12570.8,3.28789
14118.2,3.16609
15988.1,3.0406
17881.9,2.93191
20000.0,2.82711
22133.6,2.7575
25768.4,2.65628
30806.9,2.54041
31178.7,2.53186
35000.0,2.45281
40000.0,2.36249
40000.0,2.36243
60000.0,1.98971
80000.0,1.75665
118844.0,1.44767
155593.0,1.26069
260379.0,0.964286
324037.0,0.83079
393434.0,0.744352
516170.0,0.645089
684989.0,0.478756
811865.0,0.389686
996244.0,0.29435
1141090.0,0.236624
1315530.0,0.184774
1498230.0,0.144324
1712980.0,0.109615
1913260.0,0.0855976
2151430.0,0.0628921
2339050.0,0.0497998
2653710.0,0.0333402
2832270.0,0.0263761
3108730.0,0.0184262
3280340.0,0.0146595
3472740.0,0.011479
3657720.0,0.00901145
3855140.0,0.00703263
4085560.0,0.00531096
4296700.0,0.00413574
4500000.0,0.00328363
4700540.0,0.00264102
4935390.0,0.00207149
5159800.0,0.00167312
5426540.0,0.00132077
5613570.0,0.00114292
5952010.0,9.03694E-4
6284170.0,7.63299E-4
6500000.0,6.90806E-4
7000000.0,6.06953E-4
7500000.0,5.85798E-4
8000000.0,6.08193E-4
9500000.0,7.5707E-4
1.025E7,7.85561E-4
1.05E7,7.89564E-4
1.175E7,7.71959E-4
1.21865E7,7.40235E-4
1.26238E7,6.86073E-4
1.40141E7,4.56305E-4
1.47479E7,3.62012E-4
1.55E7,2.91291E-4
1.61685E7,2.45767E-4
1.71223E7,1.97817E-4
1.82154E7,1.60655E-4
1.92468E7,1.36151E-4
2.04939E7,1.15415E-4
2.2E7,9.86221E-5
2.4E7,8.47866E-5
2.65E7,7.50335E-5
3.0E7,6.75402E-5
