96-Cm-243(n,total fission) ENDF/B-VII.1
1.0E-5,29498.4
1.31241E-5,25749.2
1.70876E-5,22566.1
2.2426E-5,19698.1
2.91987E-5,17263.1
3.83206E-5,15068.9
4.98935E-5,13206.1
6.54808E-5,11527.7
8.52562E-5,10102.9
1.11891E-4,8818.81
1.45682E-4,7728.62
1.91195E-4,6746.54
2.48937E-4,5912.6
3.26707E-4,5160.95
4.25373E-4,4523.01
5.58264E-4,3948.08
7.26861E-4,3460.24
9.53941E-4,3020.46
0.00124203,2646.98
0.00163006,2310.56
0.00212234,2025.0
0.00278538,1767.66
0.00362657,1549.4
0.00475955,1355.14
0.00619694,1187.77
0.00813293,1036.7
0.0105891,910.013
0.0138972,793.677
0.0180942,695.653
0.0234661,612.557
0.0253,589.769
0.033204,514.993
0.0432317,452.965
0.0567377,396.682
0.0738726,349.741
0.0969512,309.864
0.126231,276.654
0.165666,249.392
0.215698,230.663
0.282542,220.91
0.30721,220.387
0.402727,231.091
0.515783,265.293
0.603093,295.097
0.666149,303.447
0.734057,293.654
0.860171,262.791
0.903825,259.777
0.972176,266.891
1.10404,301.214
1.14524,304.626
1.29358,288.734
1.35389,300.715
1.4595,358.098
1.474,359.965
1.58601,336.188
1.64602,347.667
1.71603,384.069
1.78502,441.066
1.85697,526.115
1.91698,624.144
1.97159,746.093
2.08681,1070.32
2.2133,1431.35
2.26959,1537.12
2.30337,1553.91
2.35966,1493.35
2.43425,1285.79
2.55388,899.192
2.61861,742.49
2.681,641.142
2.7642,576.074
2.82061,548.756
2.82901,548.408
2.86056,560.65
2.89211,597.833
2.92323,664.996
2.95954,791.543
3.03895,1186.03
3.06555,1246.29
3.07087,1247.02
3.09215,1209.73
3.12035,1079.17
3.17781,734.725
3.21,583.832
3.23793,486.636
3.27385,397.97
3.31375,332.946
3.347,297.02
3.38424,270.808
3.43213,254.236
3.45607,252.658
3.48966,258.796
3.52324,277.313
3.55147,306.591
3.5797,354.95
3.6051,423.174
3.62815,514.014
3.6512,638.668
3.7005,965.813
3.72045,1050.14
3.7328,1065.54
3.74905,1037.1
3.77164,920.913
3.82225,570.504
3.84502,450.051
3.8676,362.007
3.89301,291.941
3.91841,243.1
3.94382,208.27
3.98051,173.581
4.01814,149.782
4.06519,129.849
4.12378,113.843
4.18667,102.894
4.27051,94.0659
4.38813,87.8309
4.50576,86.0799
4.68219,89.4812
4.85863,99.9423
5.00566,115.853
5.12328,135.952
5.2115,157.821
5.3056,191.207
5.38794,233.234
5.47616,296.48
5.63495,435.474
5.69141,462.722
5.73258,468.147
5.94414,437.961
5.95753,437.703
6.05126,438.719
6.16285,428.883
6.29676,385.075
6.48424,305.901
6.58244,278.606
6.68064,268.891
6.74916,275.442
6.81769,297.108
6.86909,327.037
6.92905,383.284
6.98123,459.649
7.03418,571.754
7.15121,900.626
7.19392,968.037
7.20929,973.23
7.24517,942.424
7.29129,832.75
7.38269,560.333
7.43095,449.944
7.48327,363.659
7.53559,304.345
7.59151,261.846
7.64744,234.255
7.71455,214.911
7.78211,206.857
7.80464,206.392
7.87971,212.716
7.95478,231.988
8.04687,273.219
8.13896,314.746
8.18701,322.171
8.24707,313.284
8.37215,275.245
8.44614,265.223
8.48313,264.465
8.57671,272.818
8.73268,308.019
8.94479,363.236
9.08205,377.973
9.20682,365.805
9.36903,320.065
9.63729,228.185
9.79293,188.288
9.93773,163.757
10.0618,152.845
10.1297,151.236
10.2282,154.722
10.3775,172.037
10.4963,186.055
10.5371,187.365
10.6049,183.124
10.7068,163.17
10.8871,117.655
10.9915,98.2754
11.0785,87.1233
11.182,79.1216
11.2838,76.6594
11.3517,78.5598
11.4196,84.4993
11.4705,93.001
11.5214,107.103
11.5611,124.337
11.5956,146.51
11.6244,172.881
11.6553,213.194
11.6828,264.058
11.7103,333.523
11.744,446.999
11.8082,697.251
11.8378,766.166
11.8532,776.0
11.8756,755.245
11.9043,676.175
11.9748,398.085
12.0033,307.725
12.0303,242.876
12.0572,195.04
12.0847,159.479
12.1163,130.351
12.1508,108.05
12.1848,92.6864
12.2223,81.1372
12.2645,73.3543
12.3067,69.917
12.3863,66.5895
12.426,61.3516
12.5168,44.5401
12.5637,38.4596
12.6293,33.151
12.7231,28.6901
12.8282,25.5463
12.997,22.3746
13.213,20.0989
13.4454,19.0627
13.518,18.9977
13.7116,19.5021
13.8568,20.726
13.9914,22.897
14.1063,26.1262
14.1956,30.1927
14.2712,35.548
14.3317,42.0096
14.3839,50.1982
14.4315,61.1386
14.4724,74.6757
14.5087,91.5151
14.545,114.538
14.5876,150.956
14.6651,230.802
14.7014,256.709
14.7282,263.14
14.7619,253.63
14.8054,218.726
14.8793,146.154
14.9201,115.794
14.9564,96.5477
14.9942,82.761
15.0396,72.2877
15.0804,66.7957
15.1319,63.5658
15.1576,63.1513
15.2263,65.3027
15.2921,71.609
15.3565,82.3717
15.4101,95.9007
15.4659,116.169
15.5185,143.594
15.5679,179.905
15.6161,228.939
15.6663,297.097
15.7848,492.02
15.8191,527.327
15.849,537.775
15.8809,525.656
15.9264,472.709
16.0442,275.652
16.0925,213.065
16.1375,168.955
16.1826,136.059
16.2351,108.098
16.2877,87.9774
16.3478,71.444
16.4154,58.311
16.483,49.012
16.5666,41.0229
16.6525,35.6162
16.7157,32.9976
16.7993,31.0787
16.841,30.8027
16.922,31.9272
16.9696,34.0664
17.0172,38.0308
17.0529,42.9065
17.0886,50.3062
17.1243,61.2883
17.1611,77.2873
17.2523,126.571
17.2828,135.945
17.2988,137.488
17.3266,134.271
17.3637,120.59
17.4332,87.686
17.467,76.7341
17.5005,71.1239
17.5172,70.2472
17.545,71.5253
17.5798,77.7945
17.6146,89.0611
17.6755,117.775
17.7248,140.223
17.7599,148.112
17.7708,148.507
17.8067,142.458
17.8524,121.806
17.9289,79.5891
17.9679,63.1647
18.0047,52.2746
18.0348,46.6703
18.0664,44.0686
18.0709,43.9914
18.098,45.1874
18.1302,50.2587
18.1931,64.9021
18.2224,67.6103
18.247,65.4722
18.2739,58.7687
18.3423,34.7522
18.3688,27.595
18.3953,22.4733
18.424,18.7891
18.4536,16.3253
18.4918,14.3137
18.5395,12.721
18.6243,10.9905
18.7303,9.6952
18.8871,8.58273
19.0425,8.0155
19.0834,7.96095
19.1551,8.14038
19.2718,9.20844
19.2816,9.22118
19.3394,8.84964
19.4152,8.2298
19.4503,8.175
19.538,8.45483
19.6696,9.50355
19.7727,11.0211
19.8516,12.9155
19.9152,15.2189
19.9766,18.4925
20.0315,22.7201
20.0841,28.3567
20.1473,37.3679
20.2319,50.6769
20.2784,55.4337
20.31,56.4476
20.3556,54.3425
20.4153,46.7165
20.5118,31.8726
20.5644,25.6689
20.6127,21.4963
20.6675,18.1847
20.7223,15.9975
20.7969,14.2862
20.8583,13.6892
20.889,13.627
20.9592,14.0797
21.0118,15.0525
21.0688,16.9676
21.1182,19.7525
21.1576,23.2335
21.1918,27.7707
21.2194,33.1465
21.2424,39.5253
21.264,47.9392
21.2829,58.2218
21.3019,72.307
21.3218,92.5209
21.3399,117.211
21.3608,154.621
21.385,209.866
21.4508,389.495
21.4742,434.485
21.4997,452.697
21.5221,438.396
21.546,395.314
21.5954,260.616
21.6256,182.403
21.6478,136.68
21.6673,105.391
21.6854,83.2722
21.7036,66.6133
21.7243,52.7237
21.7449,42.8156
21.7691,34.6695
21.795,28.5903
21.826,23.5289
21.8588,19.8009
21.9002,16.516
21.9531,13.6902
22.0106,11.6411
22.0796,10.0019
22.1594,8.76433
22.2607,7.78426
22.3958,7.08763
22.4772,6.9475
22.5326,7.11943
22.5723,7.62111
22.6109,8.67264
22.6924,12.1492
22.725,12.8253
22.7303,12.8411
22.7634,12.3286
22.8512,8.804
22.8888,7.88102
22.9301,7.4588
22.9625,7.38716
23.0436,7.60928
23.1757,8.55085
23.2583,9.67784
23.3106,10.9432
23.3518,12.6227
23.3862,14.8051
23.4207,17.9143
23.5038,27.4536
23.5401,29.9863
23.5599,30.3576
23.5979,29.1092
23.678,23.2261
23.7151,21.6232
23.7426,21.2516
23.7867,21.9034
23.8422,24.4374
23.8983,28.754
23.9521,34.9853
23.9972,42.5694
24.0391,52.6657
24.0729,64.1759
24.1067,80.3327
24.1367,100.518
24.1625,124.005
24.1915,159.518
24.2204,206.792
24.2537,276.409
24.3333,467.905
24.3608,512.129
24.3895,529.179
24.414,516.944
24.4499,460.062
24.5402,244.984
24.5724,184.537
24.6014,143.238
24.6277,115.172
24.6583,91.3135
24.6873,75.0884
24.7216,61.377
24.7592,50.9427
24.8021,42.7756
24.8504,36.6618
24.8987,32.6993
24.9566,29.9183
25.0146,28.7949
25.0339,28.7501
25.0973,29.7833
25.1449,31.9221
25.1904,35.4291
25.2348,40.8535
25.2718,47.6742
25.307,57.1986
25.3394,70.0844
25.3658,84.9913
25.3908,104.344
25.4158,130.512
25.4411,165.572
25.4681,214.18
25.5089,306.609
25.5607,430.257
25.5933,482.662
25.6195,496.865
25.6467,481.539
25.6793,428.079
25.7635,228.547
25.7931,172.114
25.82,132.718
25.8459,104.218
25.8719,83.2222
25.8996,66.9044
25.9274,55.097
25.9589,45.4066
25.9978,36.9574
26.0432,30.1618
26.0889,25.3696
26.1478,21.0669
26.2066,18.0832
26.2796,15.5211
26.3525,13.7595
26.4618,12.0755
26.5971,11.0428
26.6958,10.8309
26.8022,11.0998
26.9162,12.1349
26.9921,13.5104
27.0491,15.1443
27.1137,17.9963
27.1669,21.5198
27.2277,27.1898
27.3386,39.7557
27.3796,42.8085
27.4124,43.7182
27.4586,42.4711
27.5194,37.5223
27.5999,29.8757
27.6501,26.4181
27.7025,24.2502
27.7595,23.3683
27.8203,23.823
27.881,25.576
27.9518,29.3982
28.0138,34.7873
28.0675,41.6693
28.1199,51.2111
28.1679,63.3671
28.2192,80.8775
28.2859,110.801
28.3654,149.191
28.4124,164.536
28.45,168.643
28.4876,164.4
28.5346,148.982
28.6616,89.0208
28.7128,69.9179
28.7663,55.2267
28.8175,45.2231
28.8774,37.2128
28.9372,31.9083
29.0013,28.2612
29.0654,26.1196
29.1359,25.1255
29.1594,25.0834
29.2447,26.2109
29.3157,29.0786
29.3724,33.3277
29.4221,39.3649
29.4647,47.2513
29.5051,58.1616
29.5449,73.1833
29.5868,94.1794
29.6819,150.369
29.7205,165.281
29.75,169.081
29.7795,165.429
29.8181,150.794
29.9274,88.4206
29.9707,69.3926
30.0097,57.0194
30.0513,47.9429
30.0969,41.5016
30.1426,37.5372
30.2035,34.7279
30.2644,33.7892
30.354,34.7545
30.4437,37.9803
30.5389,43.8726
30.6275,52.0323
30.7227,64.4489
30.8223,82.4813
30.9618,116.066
31.0697,141.459
31.1535,151.743
31.1774,152.264
31.2462,147.334
31.3356,129.484
31.5128,84.3132
31.6022,66.4765
31.6891,53.5336
31.776,44.1859
31.8691,37.2337
31.9622,32.7418
32.0367,30.6728
32.1112,29.9833
32.1732,30.6829
32.2227,32.3851
32.2722,35.5916
32.3217,41.1431
32.3614,48.2319
32.4011,58.7891
32.4369,72.212
32.4786,93.2607
32.5843,158.961
32.6267,174.628
32.6489,176.853
32.6797,172.392
32.7239,152.73
32.8274,86.3751
32.8671,66.5902
32.904,53.0297
32.9409,43.4782
32.9802,36.4543
33.0374,29.528
33.1154,22.5765
33.1797,18.2581
33.2427,15.4239
33.3207,13.2754
33.4237,11.5497
33.5611,10.1534
33.7328,9.16204
33.969,8.58585
34.0677,8.53231
34.2714,8.70946
34.475,9.28558
34.6663,10.2425
34.8607,11.7955
35.0273,13.8168
35.1785,16.5203
35.3174,20.1759
35.4254,24.2584
35.5334,30.0787
35.6244,37.1064
35.7,45.218
35.7772,56.6768
35.8512,72.0301
35.9237,92.6285
36.0055,123.299
36.1363,178.319
36.2005,195.596
36.242,199.197
36.2894,195.17
36.3634,174.551
36.5134,117.28
36.5884,95.8655
36.6545,82.8334
36.7335,73.2843
36.8283,68.3015
36.8599,67.8392
36.9669,69.4183
37.1541,76.4456
37.2165,77.3876
37.3235,75.0235
37.4572,65.3153
37.7068,41.9066
37.8406,32.4072
37.9609,26.1185
38.0946,21.0786
38.2367,17.323
38.3872,14.5813
38.5627,12.4952
38.7301,11.3513
38.8975,10.9798
39.0341,11.4214
39.1316,12.4064
39.2048,13.7534
39.2841,16.124
39.3609,19.6264
39.5063,28.2615
39.5688,30.6623
39.6023,31.077
39.6624,30.1455
39.76,25.6107
39.8439,21.5479
39.9083,19.4773
39.9757,18.4843
40.0001,18.4091
40.0674,18.9614
40.1348,20.6841
40.1992,23.6504
40.2636,28.3501
40.3209,34.5119
40.3781,43.0566
40.4439,56.0112
40.5556,80.5782
40.608,88.183
40.6496,90.1599
40.692,87.9728
40.7492,79.2172
40.8942,47.3131
40.9529,37.181
41.0101,29.8329
41.0654,24.7235
41.1217,21.0256
41.1892,18.0311
41.2546,16.2118
41.3404,15.029
41.3833,14.8756
41.4691,15.3937
41.5549,16.9554
41.7118,20.9244
41.7779,21.6817
41.7951,21.6835
41.8637,20.8331
41.9716,17.5087
42.0911,13.5222
42.1677,11.6699
42.2596,10.2616
42.3515,9.5884
42.4128,9.48837
42.4936,9.78066
42.5743,10.6471
42.6457,12.0728
42.7051,13.9308
42.7646,16.5912
42.8383,21.125
42.9549,29.3865
43.0119,31.9951
43.05,32.5431
43.1033,31.5118
43.1718,27.7356
43.2974,19.0858
43.364,15.7081
43.4317,13.457
43.4924,12.3072
43.553,11.8454
43.5733,11.8366
43.6252,12.1688
43.6771,13.1026
43.7276,14.7733
43.7753,17.2551
43.831,21.4388
43.9542,33.1033
44.0045,35.9568
44.0313,36.3741
44.0809,34.9521
44.1414,30.2696
44.2401,21.2382
44.2974,17.505
44.3451,15.5048
44.3929,14.3435
44.4544,13.784
44.5229,14.1117
44.5913,15.3329
44.6573,17.4613
44.7232,20.7926
44.7892,25.6794
44.8625,33.1354
44.9862,47.5062
45.0487,51.9682
45.0816,52.667
45.1386,50.9308
45.2149,44.1596
45.3312,31.7484
45.405,26.0473
45.4661,22.9818
45.5394,20.9178
45.6176,20.1803
45.6911,20.5629
45.7891,22.5213
45.8851,26.1864
45.9709,31.3361
46.0513,38.3282
46.1318,48.0288
46.2183,61.8567
46.3913,93.3505
46.472,101.325
46.5006,101.956
46.5744,97.8984
46.6544,86.2205
46.8182,56.9534
46.904,45.4151
46.988,37.6108
47.0488,33.858
47.1095,31.4932
47.1703,30.4375
47.2007,30.4141
47.2751,31.9914
47.337,35.5975
47.3866,40.6314
47.4356,48.2076
47.4868,59.6949
47.5434,77.1525
47.6623,120.913
47.712,132.801
47.748,135.555
47.7851,132.523
47.8319,121.098
47.9803,65.0533
48.0297,50.4497
48.0763,40.0065
48.1211,32.5676
48.1686,26.7845
48.2235,22.0166
48.2875,18.1582
48.3606,15.1615
48.452,12.7018
48.5507,11.0243
48.6494,10.0046
48.7718,9.41291
48.8284,9.37018
48.9279,9.69903
49.0025,10.3976
49.0688,11.5257
49.1241,13.0508
49.1793,15.4503
49.2277,18.7061
49.2671,22.5623
49.3044,27.5794
49.3479,35.5017
49.3976,47.4102
49.5026,75.9165
49.5513,83.9062
49.5791,85.2398
49.6198,82.4826
49.6684,72.939
49.7872,40.4855
49.8342,30.4983
49.8729,24.3204
49.9143,19.4703
49.9558,16.0223
50.0041,13.2334
50.0525,11.3194
50.1216,9.50858
50.2003,8.21608
50.3053,7.19211
50.409,6.62499
50.5638,6.24713
50.6412,6.20369
50.8298,6.43
50.9712,6.91451
51.1363,7.92667
51.2542,9.08832
51.372,10.8375
51.4752,13.1441
51.5606,15.9393
51.6314,19.1848
51.705,23.8895
51.7757,30.1767
51.8482,38.8957
51.9567,55.8918
52.051,70.4157
52.1217,76.5088
52.15,77.0799
52.216,73.9573
52.2856,65.2313
52.4388,40.8134
52.5125,31.6428
52.5802,25.3545
52.651,20.5907
52.7217,17.1752
52.8013,14.4465
52.8808,12.517
52.9987,10.6037
53.1166,9.40471
53.2462,8.60137
53.3759,8.15761
53.5645,7.95488
53.7837,8.2258
54.0028,8.99721
54.1733,10.0071
54.3723,11.8212
54.5207,13.8416
54.647,16.2629
54.7733,19.6876
54.8838,23.9784
54.9848,29.5879
55.0732,36.5728
55.149,44.9025
55.2248,56.3724
55.299,71.7247
55.3779,93.3965
55.5639,154.674
55.6296,167.75
55.6725,170.344
55.7407,163.944
55.8152,145.224
55.9763,94.4678
56.0521,76.2723
56.13,62.9479
56.2065,54.2729
56.283,48.8885
56.3442,46.3931
56.4348,45.034
56.5215,45.9581
56.6372,50.392
56.7541,58.9142
56.8597,70.7055
56.9879,90.7112
57.2052,130.181
57.2856,139.217
57.3456,141.396
57.4385,136.179
57.5592,117.172
57.7684,76.658
57.8891,58.5965
58.0037,46.0205
58.1093,37.5791
58.2351,30.3688
58.3759,24.8239
58.5267,20.8837
58.6776,18.3971
58.8285,17.0544
58.9455,16.7623
59.056,17.1815
59.1666,18.5056
59.2587,20.6228
59.3509,24.1466
59.4338,29.0728
59.5198,36.4687
59.7268,59.7247
59.7907,63.8832
59.8278,64.576
59.889,62.6925
59.9676,55.6835
60.1405,35.2165
60.2231,27.809
60.2968,23.0334
60.3828,19.1943
60.4779,16.4871
60.5882,14.7043
60.6766,14.0459
60.7375,13.9361
60.8253,14.2761
60.9132,15.2845
61.0025,17.1469
61.1066,20.5484
61.2864,27.8916
61.3675,29.7443
61.3981,29.905
61.4703,29.0138
61.5758,25.2675
61.738,18.5187
61.8394,15.6194
61.9408,13.8933
62.0524,13.081
62.0896,13.0307
62.2027,13.5866
62.2829,14.7989
62.3468,16.4571
62.4281,19.7382
62.5502,26.8504
62.6319,31.2116
62.7031,32.8823
62.71,32.9028
62.7647,32.1961
62.8677,28.0442
62.9715,23.764
63.0348,22.304
63.0921,21.8607
63.1747,22.5623
63.2692,25.0657
63.3866,30.2577
63.5606,38.8014
63.6578,41.2915
63.7279,41.752
63.8062,41.6802
63.9108,42.4384
64.0059,45.6002
64.101,52.2693
64.1812,61.429
64.266,75.6452
64.3528,96.0206
64.4663,131.248
64.6173,179.439
64.7118,197.749
64.8577,206.498
64.9972,209.486
65.0954,203.011
65.1764,185.061
65.3904,110.489
65.4696,90.1713
65.5387,78.3923
65.6078,71.6978
65.6742,69.5988
65.7301,71.0662
65.7972,77.1191
65.8644,88.6566
65.9355,107.746
66.0299,142.933
66.1264,179.871
66.1934,194.989
66.2268,196.876
66.2747,192.274
66.3458,171.618
66.5144,100.357
66.5829,77.6093
66.6458,62.0366
66.7125,50.1197
66.7792,41.7345
66.8546,35.2253
66.9204,31.3541
67.0192,27.8111
67.0982,26.51
67.1443,26.2955
67.2372,26.9465
67.421,31.0327
67.5896,35.8724
67.6739,39.7405
67.872,52.7936
67.9277,54.099
67.9909,52.4471
68.0698,46.0984
68.2285,29.072
68.3028,23.0779
68.3748,18.9692
68.456,15.866
68.5489,13.6147
68.6649,11.9263
68.8135,10.7583
68.9992,10.1514
69.0827,10.0818
69.2692,10.2836
69.5089,11.2493
69.6756,12.5085
69.8369,14.4437
69.9714,16.9698
70.0789,19.9975
70.1999,24.9238
70.4844,39.2678
70.6409,46.7902
70.7162,52.6869
70.7942,62.2207
70.8589,73.9399
70.9235,90.3051
70.9934,114.454
71.0739,151.247
71.289,266.755
71.5092,368.167
71.6149,413.791
71.6583,419.347
71.7167,406.618
71.7701,374.473
71.9542,206.322
72.0163,162.993
72.0758,133.355
72.1383,112.536
72.2074,98.0121
72.303,86.0896
72.39,79.7066
72.4857,77.0017
72.5586,78.587
72.6505,84.7779
72.8032,101.396
72.8861,115.733
72.9903,143.681
73.0742,165.266
73.1305,170.313
73.1915,163.313
73.3373,121.169
73.3899,112.008
73.4293,109.717
73.4949,113.322
73.7262,145.669
73.7963,149.933
73.8705,145.16
73.9436,128.975
74.0985,80.1817
74.1551,67.1705
74.2022,59.6221
74.2587,53.7597
74.3899,46.3228
74.5272,37.9443
74.6944,26.3199
74.7768,21.9559
74.8681,18.5174
74.9711,16.0334
75.0594,14.7385
75.1612,13.9216
75.263,13.6759
75.3723,14.001
75.4815,15.0186
75.5779,16.6829
75.6744,19.3761
75.7605,22.9746
75.8588,28.7076
76.042,41.5364
76.1333,45.656
76.2117,46.6629
76.396,44.8193
76.4756,45.7104
76.7052,52.7973
76.8802,54.1351
76.9584,57.5657
77.0251,63.9651
77.1119,77.065
77.2258,96.274
77.2883,102.694
77.3283,103.835
77.3884,100.698
77.4754,87.7238
77.6231,59.5841
77.6869,50.2895
77.7489,43.8262
77.8146,39.5332
77.8944,37.3274
77.9085,37.2447
77.9791,38.1395
78.0498,41.1982
78.127,47.0129
78.24,59.4912
78.531,99.5806
78.6861,121.837
78.7715,127.392
78.7829,127.458
78.8569,123.54
78.9537,108.599
79.1416,70.5835
79.2283,57.5674
79.315,48.6056
79.4383,40.3542
79.7615,22.5955
79.8717,18.0933
79.968,15.3334
80.0781,13.2157
80.2085,11.6815
80.3519,10.8564
80.434,10.749
80.5264,10.9954
80.6188,11.7504
80.7215,13.3963
80.8477,16.663
80.9925,20.569
81.0829,21.7816
81.2476,22.3207
81.3105,23.3753
81.3695,25.553
81.4323,29.4844
81.5152,37.2338
81.6463,50.957
81.7053,54.4835
81.74,55.0693
81.799,53.3227
81.8718,47.2536
82.0175,31.5322
82.0821,26.3376
82.1467,22.8913
82.2092,21.0798
82.2753,20.5364
82.3414,21.1525
82.4296,23.342
82.6308,29.8097
82.7999,33.2856
82.8858,36.8719
82.9684,43.4607
83.1985,70.0285
83.3513,84.9131
83.4221,96.888
83.5111,119.964
83.629,154.704
83.6886,165.891
83.7236,168.379
83.789,163.368
83.8496,148.088
83.9637,104.031
84.0481,72.5579
84.1033,56.4799
84.1584,44.3286
84.2104,35.987
84.2635,29.8893
84.3272,24.9042
84.394,21.5601
84.4669,19.4108
84.5398,18.3867
84.5913,18.1786
84.7033,18.718
84.9367,21.5105
85.2152,26.802
85.2717,27.1092
85.3509,26.3223
85.4441,23.6935
85.6533,15.7893
85.7522,13.1069
85.837,11.6811
85.9167,11.0789
85.9406,11.0382
86.0045,11.2412
86.1243,12.609
86.2393,13.9813
86.2842,14.1328
86.3575,13.686
86.4598,11.937
86.5796,9.65965
86.6535,8.7287
86.7213,8.29036
86.7553,8.21563
86.847,8.47855
86.9233,9.2564
87.0034,10.7548
87.0789,12.9495
87.1887,17.3796
87.3021,21.8699
87.3741,23.244
87.3929,23.3125
87.4595,22.5545
87.5492,19.6496
87.6737,14.7951
87.7561,12.4461
87.8213,11.2815
87.8865,10.6705
87.9299,10.5307
88.0033,10.7336
88.0768,11.4854
88.1458,12.7386
88.2378,15.3043
88.5037,25.331
88.9211,37.3094
89.1023,41.9569
89.4811,59.2135
89.8321,74.8824
89.8775,75.4475
89.9697,72.8261
90.0588,65.2389
90.256,42.4559
90.3353,35.8358
90.4035,32.1215
90.4716,30.1082
90.517,29.6015
90.5923,30.0133
90.7178,33.2465
90.9634,41.4984
91.6191,58.3681
91.8958,66.7357
92.3177,70.3182
92.4168,67.8663
92.5294,59.5085
92.6571,48.7469
92.7256,45.2959
92.7915,44.1992
92.8524,44.9833
93.0797,54.0064
93.1511,55.0324
93.2366,53.6492
93.4625,43.9409
93.5695,42.1245
93.6456,43.0343
93.7706,48.0284
94.1131,67.9933
94.3414,76.6395
94.4952,82.6107
94.6073,91.6947
94.874,122.054
95.0406,139.255
95.1247,154.935
95.2282,185.75
95.3941,244.899
95.4665,258.532
95.4907,259.673
95.5583,252.669
95.6404,225.996
95.8527,126.26
95.9296,98.1339
96.0021,78.2177
96.0782,63.121
96.1543,52.6209
96.2177,46.5538
96.3044,41.3315
96.3763,39.1894
96.4411,38.6067
96.6219,39.7853
96.7201,38.8359
96.8315,34.9657
96.9972,27.8915
97.0921,25.7553
97.1392,25.4914
97.2247,26.338
97.3861,30.9984
97.538,34.8499
97.6899,37.443
97.7881,40.9735
98.0289,55.7966
98.1406,59.0852
98.1914,59.2678
98.2599,59.0625
98.3664,60.91
98.4363,65.6261
98.5333,77.5967
98.6712,97.8411
98.7538,104.797
98.81,106.162
98.9751,104.609
99.0689,105.567
99.1562,103.34
99.2329,94.6039
99.3301,75.0921
99.4397,51.3792
99.5042,40.5585
99.5682,32.7636
99.6337,27.2251
99.7181,22.2679
99.8391,17.0889
99.927,14.2239
99.9757,13.0088
100.0,12.5076
100.0,41.09
105.737,39.23
110.255,37.8904
117.396,35.9664
125.0,34.14
128.917,32.2357
134.019,29.9905
138.444,28.2321
143.545,26.3949
149.001,24.6254
152.839,23.4874
157.577,22.1911
160.0,21.57
191.285,22.0393
200.0,22.17
236.435,25.2866
250.0,26.42
258.326,24.5602
265.507,23.1047
273.739,21.5851
282.496,20.1226
288.627,19.1826
296.16,18.1125
300.0,17.6
350.0,17.49
374.166,16.8275
400.0,16.19
447.214,15.5992
500.0,15.03
597.765,16.7898
600.0,16.83
648.074,16.1233
700.0,15.4463
773.735,14.6089
800.0,14.34
882.04,13.7144
959.024,13.1999
1000.0,12.95
1106.68,12.4464
1194.1,12.0816
1338.34,11.5543
1500.0,11.05
1701.19,10.6008
1894.98,10.2303
2000.0,10.05
2103.98,9.74949
2299.12,9.24505
2519.33,8.75217
2681.45,8.43126
2889.82,8.06167
3223.71,7.53228
3402.37,7.27952
3689.1,6.91619
4000.0,6.571
4472.14,6.29365
5000.0,6.028
5471.9,5.72037
5818.94,5.51968
6264.55,5.28811
6500.0,5.176
7770.94,5.28869
8000.0,5.309
8458.97,5.13349
9197.27,4.88104
10000.0,4.641
11495.6,4.4392
12641.6,4.30667
14168.6,4.15284
15000.0,4.078
17320.5,3.94844
20000.0,3.823
22133.6,3.65671
24572.6,3.4928
27540.8,3.32235
30000.0,3.2
35865.9,3.13886
37224.2,3.1247
40000.0,3.10294
40000.0,3.10288
65865.9,2.9424
80000.0,2.90001
100000.0,2.94999
200000.0,2.794
300000.0,2.492
500000.0,2.26
800000.0,2.203
1000000.0,2.246
1500000.0,2.524
2000000.0,2.621
3186340.0,2.43744
4000000.0,2.236
6000000.0,2.128
7000000.0,2.75399
8000000.0,2.797
1.25E7,2.75
1.3E7,2.75001
1.35E7,2.75
2.0E7,2.808
